Jaz Data File
++++++++++++++++++++++++++++++++++++
Date: Sun Sep 29 07:28:47 2024
User: jaz
Dark Spectrum Present: Yes
Reference Spectrum Present: Yes
Processed Spectrum Present: Yes
Spectrometers: JAZA3692
Integration Time (usec): 40000 (JAZA3692)
Spectra Averaged: 1 (JAZA3692)
Boxcar Smoothing: 0 (JAZA3692)
Correct for Electrical Dark: No (JAZA3692)
Strobe/Lamp Enabled: Yes (JAZA3692)
Correct for Detector Non-linearity: No (JAZA3692)
Correct for Stray Light: No (JAZA3692)
Number of Pixels in Processed Spectrum: 2048
>>>>>Begin Processed Spectral Data<<<<<
W	D	R	S	P
190.244385	0.000000	0.000000	0.000000	0.000000
190.627136	0.000000	0.000000	0.000000	0.000000
191.009842	1105.903076	1067.219238	1153.689087	-123.529655
191.392532	1112.729614	1064.943726	1042.188477	147.619186
191.775177	1137.760376	1119.556274	1083.147949	300.000671
192.157791	1144.586914	1085.423462	1062.668213	138.461670
192.540390	1196.923950	1151.413574	1121.831787	165.000092
192.922943	1178.719727	1074.045776	1140.035889	36.956509
193.305481	1183.270874	1162.791138	1167.342163	77.777908
193.687958	1105.903076	1190.097412	1101.352051	-5.405382
194.070419	1112.729614	1087.698975	1130.933838	-72.727760
194.452866	1221.954712	1178.719727	1119.556274	236.841614
194.835251	1187.821899	1249.260864	1153.689087	-55.555645
195.217621	1199.199463	1210.577026	1094.525513	-920.003235
195.599960	1142.311401	1135.484863	1087.698975	800.001770
195.982254	1078.596802	1137.760376	1194.648438	196.153870
196.364517	1124.107300	1146.862427	1144.586914	90.000000
196.746750	1167.342163	1128.658325	1137.760376	76.470665
197.128952	1178.719727	1169.617676	1099.076538	875.002686
197.511139	1167.342163	1233.332275	1026.259888	-213.793045
197.893280	1165.066650	1092.250000	1128.658325	50.000000
198.275391	1087.698975	1187.821899	1053.566162	-34.090908
198.657471	1119.556274	1206.026001	1151.413574	36.842144
199.039520	1130.933838	1256.087524	1165.066650	27.272718
199.421539	1171.893188	1215.128052	1146.862427	-57.894855
199.803513	1185.546387	1110.454102	1203.750488	-24.242306
200.185471	1099.076538	1144.586914	1115.005249	35.000175
200.567383	1208.301514	1162.791138	1119.556274	195.000015
200.949265	1167.342163	1221.954712	1124.107300	-79.166534
201.331131	1124.107300	1137.760376	1121.831787	-16.666666
201.712967	1140.035889	1101.352051	1155.964600	-41.176655
202.094742	1133.209351	1180.995239	1146.862427	28.571356
202.476517	1083.147949	1199.199463	1112.729614	25.490116
202.858231	1128.658325	1153.689087	1083.147949	-181.817780
203.239944	1103.627563	1155.964600	1089.974487	-26.086834
203.621582	1121.831787	1130.933838	1142.311401	225.000000
204.003235	1137.760376	1112.729614	1142.311401	-18.181730
204.384827	1144.586914	1185.546387	1169.617676	61.111046
204.766388	1108.178589	1215.128052	1135.484863	25.531942
205.147934	1078.596802	1153.689087	1146.862427	90.908974
205.529449	1146.862427	1133.209351	1101.352051	333.334229
205.910904	1119.556274	1206.026001	1115.005249	-5.263143
206.292343	1115.005249	1092.250000	1162.791138	-209.999405
206.673767	1140.035889	1158.240112	1083.147949	-312.498566
207.055115	1233.332275	1094.525513	1078.596802	111.475456
207.436462	1076.321289	1174.168701	1124.107300	48.837276
207.817780	1151.413574	1096.801025	1105.903076	83.333405
208.199051	1126.382813	1187.821899	1115.005249	-18.518444
208.580307	1044.463989	1108.178589	1064.943726	32.142925
208.961517	1092.250000	1126.382813	1060.392700	-93.333359
209.342712	1069.494751	1121.831787	1096.801025	52.173904
209.723846	1092.250000	1149.138062	1285.669312	339.999817
210.104965	1187.821899	1140.035889	1071.770264	242.856918
210.486069	1128.658325	1190.097412	1178.719727	81.481354
210.867111	1078.596802	1128.658325	1146.862427	136.363464
211.248123	1176.444214	1130.933838	1176.444214	-0.000000
211.629120	1130.933838	1169.617676	1096.801025	-88.235329
212.010071	1089.974487	1142.311401	1158.240112	130.434952
212.390991	1126.382813	1128.658325	1115.005249	-500.000000
212.771881	1187.821899	1128.658325	1121.831787	111.538414
213.152756	1160.515625	1171.893188	1158.240112	-20.000000
213.533569	1115.005249	1146.862427	1140.035889	78.571426
213.914368	1124.107300	1196.923950	1026.259888	-134.375046
214.295135	1199.199463	1201.474976	1117.280762	-3600.010742
214.675858	1140.035889	1112.729614	1155.964600	-58.333519
215.056549	1130.933838	1101.352051	1110.454102	69.230896
215.437225	1153.689087	1130.933838	1144.586914	40.000320
215.817841	1155.964600	1196.923950	1108.178589	-116.666916
216.198441	1115.005249	1176.444214	1064.943726	-81.481720
216.579025	1140.035889	1160.515625	1083.147949	-277.776703
216.959549	1128.658325	1233.332275	1103.627563	-23.913076
217.340057	1067.219238	1144.586914	1115.005249	61.764828
217.720535	1165.066650	1160.515625	1094.525513	1550.005371
218.100967	1153.689087	1160.515625	1080.872437	-1066.670288
218.481369	1151.413574	1128.658325	1119.556274	139.999786
218.861740	1119.556274	1117.280762	1110.454102	400.005371
219.242065	1119.556274	1146.862427	1146.862427	100.000000
219.622391	1153.689087	1115.005249	1140.035889	35.294323
220.002670	1083.147949	1142.311401	1142.311401	100.000000
220.382919	1146.862427	1130.933838	1078.596802	428.572968
220.763123	1128.658325	1162.791138	1162.791138	100.000000
221.143295	1128.658325	1190.097412	1144.586914	25.925823
221.523453	1169.617676	1180.995239	1137.760376	-280.001068
221.903549	1121.831787	1194.648438	1096.801025	-34.375053
222.283630	1142.311401	1212.852539	1112.729614	-41.935513
222.663696	1160.515625	1126.382813	1110.454102	146.666855
223.043701	1115.005249	1196.923950	1128.658325	16.666616
223.423676	1058.117188	1142.311401	1119.556274	72.973053
223.803635	1140.035889	1149.138062	1101.352051	-424.995636
224.183548	1080.872437	1192.372925	1124.107300	38.775494
224.563431	1033.086426	1192.372925	1137.760376	65.714264
224.943283	1115.005249	1174.168701	1169.617676	92.307709
225.323105	1110.454102	1144.586914	1153.689087	126.666931
225.702881	1133.209351	1199.199463	1144.586914	17.241316
226.082642	1085.423462	1149.138062	1074.045776	-17.857265
226.462357	1146.862427	1244.709839	1099.076538	-48.837151
226.842041	1087.698975	1165.066650	1071.770264	-20.588327
227.221695	1124.107300	1178.719727	1199.199463	137.500137
227.601318	1137.760376	1171.893188	1158.240112	60.000145
227.980911	1135.484863	1171.893188	1128.658325	-18.749937
228.360474	1058.117188	1206.026001	1155.964600	66.153877
228.739990	1171.893188	1290.220337	1167.342163	-3.846138
229.119476	1105.903076	1231.056763	1196.923950	72.727280
229.498932	1074.045776	1237.883301	1149.138062	45.833385
229.878372	1124.107300	1324.353149	1196.923950	36.363625
230.257736	1167.342163	1454.057739	1212.852539	15.873004
230.637115	1126.382813	1383.516602	1292.495850	64.601791
231.016449	1067.219238	1367.588013	1133.209351	21.969698
231.395737	1155.964600	1381.241089	1194.648438	17.171715
231.774994	1144.586914	1306.148926	1146.862427	1.408445
232.154221	1128.658325	1253.812012	1140.035889	9.090874
232.533417	1087.698975	1292.495850	1176.444214	43.333298
232.912582	1071.770264	1292.495850	1208.301514	61.855652
233.291702	1117.280762	1278.842651	1146.862427	18.309803
233.670792	1149.138062	1272.016113	1190.097412	33.333332
234.049866	1151.413574	1328.904175	1167.342163	8.974328
234.428894	1117.280762	1310.699951	1158.240112	21.176466
234.807892	1155.964600	1315.250977	1178.719727	14.285670
235.186874	1178.719727	1256.087524	1151.413574	-35.293949
235.565781	1128.658325	1269.740601	1194.648438	46.774204
235.944687	1087.698975	1328.904175	1194.648438	44.339619
236.323547	1133.209351	1317.526489	1169.617676	19.753088
236.702377	1110.454102	1272.016113	1117.280762	4.225412
237.081177	1115.005249	1278.842651	1158.240112	26.388885
237.459946	1130.933838	1297.046875	1185.546387	32.876740
237.838669	1167.342163	1340.281738	1153.689087	-7.894709
238.217361	1130.933838	1353.934937	1083.147949	-21.428545
238.596039	1110.454102	1381.241089	1142.311401	11.764709
238.974670	1087.698975	1326.628662	1160.515625	30.476183
239.353271	1030.810913	1406.271851	1130.933838	26.666668
239.731842	1115.005249	1381.241089	1103.627563	-4.273536
240.110367	1146.862427	1401.720825	1140.035889	-2.678561
240.488876	1140.035889	1322.077637	1187.821899	26.250029
240.867340	1089.974487	1399.445313	1203.750488	36.764694
241.245789	1151.413574	1392.618774	1158.240112	2.830179
241.624176	1124.107300	1460.884399	1253.812012	38.513519
242.002548	1130.933838	1526.874512	1206.026001	18.965509
242.380890	1169.617676	1479.088501	1251.536499	26.470613
242.759186	1128.658325	1633.823975	1233.332275	20.720718
243.137451	1144.586914	1692.987427	1299.322388	28.215778
243.515686	1146.862427	1802.212524	1267.465088	18.402784
243.893890	1142.311401	1745.324463	1253.812012	18.490580
244.272049	1055.841675	1875.029175	1401.720825	42.222221
244.650192	1140.035889	1761.253052	1219.679199	12.820526
245.028290	1135.484863	1672.507813	1244.709839	20.338978
245.406357	1135.484863	1663.405762	1221.954712	16.379318
245.784393	1144.586914	1617.895264	1128.658325	-3.365372
246.162384	1149.138062	1617.895264	1217.403687	14.563109
246.540359	1140.035889	1647.477051	1219.679199	15.695083
246.918289	1128.658325	1704.365112	1317.526489	32.806313
247.296204	1146.862427	1843.171875	1260.638550	16.339880
247.674057	1201.474976	2100.305664	1390.343262	21.012665
248.051895	1162.791138	2296.000488	1499.568237	29.718878
248.429703	1146.862427	2355.164063	1442.680176	24.482111
248.807465	1155.964600	2434.807373	1426.751587	21.174377
249.185196	1124.107300	2189.051025	1406.271851	26.495724
249.562897	1096.801025	2091.203613	1319.802124	22.425636
249.940567	1110.454102	1945.570313	1338.006226	27.247959
250.318192	1155.964600	1904.610962	1310.699951	20.668684
250.695801	1167.342163	1831.794189	1217.403687	7.534257
251.073349	1174.168701	1733.946899	1253.812012	14.227655
251.450882	1135.484863	1736.222412	1185.546387	8.333344
251.828400	1133.209351	1779.457275	1262.914063	20.070427
252.205872	1115.005249	1758.977539	1208.301514	14.487621
252.583313	1130.933838	1752.151001	1262.914063	21.245424
252.960693	1112.729614	1813.590088	1233.332275	17.207798
253.338074	1071.770264	1909.161987	1180.995239	13.043474
253.715408	1142.311401	1906.886475	1262.914063	15.773815
254.092682	1099.076538	1868.202637	1228.781250	16.863907
254.469955	1087.698975	1749.875488	1155.964600	10.309279
254.847198	1121.831787	1683.885376	1244.709839	21.862337
255.224365	1149.138062	1677.058838	1217.403687	12.931036
255.601563	1115.005249	1738.497925	1190.097412	12.043793
255.978683	1089.974487	1747.599976	1233.332275	21.799305
256.355743	1115.005249	1720.293701	1199.199463	13.909767
256.732819	1171.893188	1720.293701	1203.750488	5.809130
257.109894	1133.209351	1631.548462	1294.771362	32.420094
257.486877	1183.270874	1708.916138	1221.954712	7.359305
257.863831	1142.311401	1731.671387	1249.260864	18.146713
258.240753	1135.484863	1870.478149	1301.597900	22.600620
258.617645	1162.791138	1818.141113	1240.158813	11.805551
258.994507	1060.392700	1970.601074	1294.771362	25.750000
259.371307	1078.596802	2016.111450	1303.873413	24.029129
259.748108	1096.801025	2182.224365	1335.730713	22.012581
260.124878	1121.831787	2361.990479	1319.802124	15.963306
260.501617	1094.525513	2630.501953	1447.231201	22.962961
260.878296	1103.627563	2949.074951	1467.710938	19.728733
261.254944	1115.005249	3015.064941	1442.680176	17.245506
261.631561	1099.076538	3010.513916	1535.976563	22.857145
262.008179	1119.556274	2755.655762	1451.782227	20.305975
262.384735	1096.801025	2416.603027	1454.057739	27.068962
262.761261	1135.484863	2086.652588	1367.588013	24.401917
263.137695	1060.392700	2170.846924	1342.557251	25.409832
263.514191	1108.178589	2093.479248	1276.567139	17.090067
263.890594	1110.454102	2152.642578	1303.873413	18.558956
264.267029	1108.178589	2002.458252	1269.740601	18.066162
264.643341	1067.219238	2016.111450	1292.495850	23.741013
265.019653	1094.525513	2116.234375	1310.699951	21.158125
265.395935	1108.178589	2066.172852	1267.465088	16.627083
265.772217	1144.586914	1966.049927	1322.077637	21.606661
266.148407	1128.658325	1993.356201	1297.046875	19.473686
266.524597	1137.760376	2070.723877	1287.944824	16.097570
266.900726	1119.556274	2027.489014	1338.006226	24.060146
267.276855	1151.413574	2243.663574	1319.802124	15.416667
267.652924	1085.423462	2209.530762	1344.832764	23.076916
268.028992	1105.903076	2327.857666	1244.709839	11.359405
268.404999	1183.270874	2305.102539	1333.455200	13.387421
268.781006	1137.760376	2389.296875	1376.690063	19.090908
269.156921	1062.668213	2296.000488	1297.046875	19.003691
269.532837	1171.893188	2346.062012	1381.241089	17.829454
269.908661	1165.066650	2296.000488	1310.699951	12.877261
270.284546	1112.729614	2250.489990	1367.588013	22.400007
270.660339	1076.321289	2248.214600	1333.455200	21.941751
271.036133	1185.546387	2282.347412	1363.036987	16.182571
271.411835	1101.352051	2473.491211	1347.108276	17.910444
271.787537	1137.760376	2493.970703	1390.343262	18.624168
272.163239	1151.413574	2703.318604	1449.506714	19.208208
272.538849	1105.903076	2873.982666	1515.496826	23.166025
272.914459	1119.556274	2960.452637	1576.935913	24.845486
273.290070	1165.066650	2855.778564	1488.190552	19.111706
273.665588	1080.872437	2673.737061	1467.710938	24.285711
274.041046	1135.484863	2707.869873	1472.261963	21.418234
274.416565	1180.995239	2664.634766	1440.404663	17.484667
274.791962	1117.280762	2637.328613	1476.812988	23.652691
275.167389	1055.841675	2553.134277	1328.904175	18.237083
275.542755	1121.831787	2450.735840	1347.108276	16.952051
275.918060	1033.086426	2455.286865	1413.098389	26.720001
276.293365	1117.280762	2514.450439	1444.955688	23.452765
276.668640	1124.107300	2523.552490	1415.373901	20.813005
277.043854	1060.392700	2614.573486	1510.945801	28.989748
277.419037	1083.147949	2546.307861	1435.853638	24.105751
277.794189	1119.556274	2557.685303	1474.537476	24.683544
278.169312	1126.382813	2548.583252	1472.261963	24.320000
278.544373	1117.280762	2607.746826	1497.292725	25.496183
278.919464	1135.484863	2580.440674	1460.884399	22.519688
279.294464	1103.627563	2559.960938	1474.537476	25.468750
279.669464	1171.893188	2573.614014	1454.057739	20.129868
280.044403	1165.066650	2630.501953	1447.231201	19.254658
280.419312	1206.026001	2650.981689	1547.354126	23.622047
280.794189	1140.035889	2594.093750	1522.323364	26.291077
281.169037	1121.831787	2728.349365	1508.670288	24.079319
281.543854	1192.372925	2710.145264	1508.670288	20.839579
281.918671	1144.586914	2769.308838	1535.976563	24.089640
282.293365	1121.831787	2908.115479	1549.629639	23.949043
282.668091	1096.801025	3165.249512	1565.558350	22.662268
283.042786	1089.974487	3099.259277	1556.456177	23.216305
283.417419	1094.525513	3281.301025	1604.242188	23.309055
283.792053	1146.862427	3197.106689	1638.375000	23.973368
284.166595	1130.933838	2990.034424	1599.691162	25.214199
284.541138	1121.831787	3035.544678	1522.323364	20.927464
284.915619	1080.872437	2910.391113	1561.007324	26.243782
285.290100	1121.831787	3008.238525	1563.282837	23.401690
285.664520	1165.066650	3094.708252	1615.619751	23.349056
286.038940	1119.556274	3081.055176	1608.793213	24.941994
286.413300	1105.903076	3215.310791	1574.660400	22.222225
286.787628	1153.689087	3281.301025	1583.762451	20.213902
287.161896	1160.515625	3399.628174	1697.538574	23.983740
287.536194	1130.933838	3390.525879	1711.191650	25.679760
287.910400	1128.658325	3388.250488	1722.569214	26.283985
288.284607	1003.504700	3351.842041	1615.619751	26.065889
288.658752	1155.964600	3060.575439	1631.548462	24.970133
289.032867	1121.831787	3005.962891	1558.731689	23.188402
289.406921	1121.831787	3083.330566	1681.609863	28.538282
289.781006	1124.107300	3160.698486	1533.701050	20.111731
290.154999	1146.862427	3194.831299	1615.619751	22.888889
290.529022	1133.209351	3281.301025	1642.926025	23.728813
290.902954	1053.566162	3404.179199	1706.640625	27.783155
291.276825	1103.627563	3479.271240	1679.334351	24.233719
291.650757	1069.494751	3458.791504	1747.599976	28.380953
292.024597	1094.525513	3392.801514	1670.232300	25.049507
292.398407	1085.423462	3401.903564	1740.773438	28.290768
292.772156	1178.719727	3345.015625	1713.467163	24.684875
293.145905	1096.801025	3247.168213	1629.272949	24.761908
293.519592	1146.862427	3217.586426	1686.160889	26.043955
293.893280	1130.933838	3285.852051	1699.814087	26.399157
294.266907	1078.596802	3228.964111	1702.089600	28.994713
294.640533	1069.494751	3429.209961	1802.212524	31.051109
295.014069	1083.147949	3429.209961	1713.467163	26.867117
295.387604	1121.831787	3686.343750	1749.875488	24.489794
295.761078	1085.423462	3754.609375	1795.385864	26.598461
296.134552	1128.658325	3677.241699	1761.253052	24.821424
296.507996	1165.066650	3718.200928	1795.385864	24.688055
296.881378	1067.219238	3759.160400	1713.467163	24.006763
297.254730	1080.872437	3988.988037	1740.773438	22.691704
297.628021	1126.382813	4070.906738	1795.385864	22.720245
298.001282	1142.311401	4159.651855	1920.539551	25.791859
298.374573	1121.831787	4282.530273	1995.631714	27.645786
298.747803	1096.801025	4257.499512	1872.753662	24.550037
299.121002	1096.801025	3988.988037	1918.264038	28.402832
299.494141	1124.107300	3729.578613	1765.804199	24.628824
299.867188	1119.556274	3624.904541	1756.702026	25.431425
300.240265	1076.321289	3720.476563	1654.303589	21.858864
300.613312	1174.168701	3681.792725	1699.814087	20.961889
300.986328	1224.230225	3520.230713	1788.559326	24.578789
301.359314	1094.525513	3499.750977	1713.467163	25.733206
301.732239	1194.648438	3367.770752	1724.844727	24.397903
302.105103	1171.893188	3447.414063	1642.926025	20.699999
302.477997	1080.872437	3608.976074	1667.956787	23.222322
302.850830	1149.138062	3593.047363	1740.773438	24.208567
303.223602	1140.035889	3422.383301	1658.854614	22.731804
303.596375	1119.556274	3497.475586	1599.691162	20.191385
303.969116	1101.352051	3251.719238	1708.916138	28.253969
304.341766	1110.454102	3319.984863	1601.966675	22.245111
304.714478	1135.484863	3324.535889	1656.579102	23.804573
305.087067	1051.290649	3224.413086	1770.355225	33.089001
305.459656	1126.382813	3279.025391	1642.926025	23.995773
305.832214	1085.423462	3165.249512	1586.037964	24.070017
306.204681	1174.168701	3190.280273	1606.517700	21.444696
306.577148	1151.413574	3299.505127	1645.201538	22.987288
306.949646	1180.995239	3397.352539	1636.099487	20.533884
307.322021	1126.382813	3228.964111	1642.926025	24.567099
307.694397	1128.658325	3308.607178	1606.517700	21.920670
308.066742	1058.117188	3408.730225	1576.935913	22.071634
308.439026	1092.250000	3370.046387	1677.058838	25.674324
308.811279	1128.658325	3527.057129	1758.977539	26.280832
309.183502	1067.219238	3677.241699	1715.742676	24.847427
309.555695	1112.729614	3654.486328	1645.201538	20.948973
309.927887	1071.770264	3656.761963	1649.752563	22.359156
310.299988	1146.862427	3688.619141	1715.742676	22.381380
310.672058	1146.862427	3788.742188	1690.711914	20.585701
311.044128	1155.964600	3777.364502	1704.365112	20.920139
311.416168	1119.556274	3872.936523	1613.344238	17.933882
311.788147	1115.005249	3781.915527	1615.619751	18.771330
312.160065	1199.199463	3829.701416	1688.436401	18.598616
312.531982	1089.974487	3822.875000	1722.569214	23.147375
312.903870	1130.933838	3659.037354	1706.640625	22.772280
313.275696	1117.280762	3579.394287	1674.783325	22.643251
313.647491	1149.138062	3627.180176	1601.966675	18.273645
314.019318	1119.556274	3554.363525	1631.548462	21.028038
314.391022	1124.107300	3488.373291	1611.068726	20.596727
314.762726	1124.107300	3556.638916	1601.966675	19.644527
315.134369	1126.382813	3684.068115	1665.681274	21.085411
315.505981	1194.648438	3668.139648	1611.068726	16.835325
315.877594	1092.250000	3866.109863	1688.436401	21.493025
316.249146	1096.801025	3740.956299	1683.885376	22.203096
316.620636	1169.617676	3606.700439	1636.099487	19.140991
316.992157	1194.648438	3513.404053	1592.864502	17.173697
317.363586	1121.831787	3411.005615	1640.650513	22.664017
317.735016	1094.525513	3442.863037	1501.843750	17.344963
318.106354	1117.280762	3385.974854	1620.170776	22.166498
318.477722	1099.076538	3399.628174	1624.721802	22.848661
318.849060	1153.689087	3458.791504	1506.394775	15.301085
319.220306	1180.995239	3504.302002	1583.762451	17.335947
319.591522	1083.147949	3602.149414	1681.609863	23.757902
319.962738	1103.627563	3631.731201	1636.099487	21.062109
320.333923	1167.342163	3588.496338	1601.966675	17.951128
320.705017	1076.321289	3492.924316	1565.558350	20.244825
321.076111	1105.903076	3577.118652	1597.415649	19.889505
321.447144	1151.413574	3449.689453	1531.425537	16.534655
321.818176	1160.515625	3467.893799	1638.375000	20.710058
322.189178	1085.423462	3333.637939	1583.762451	22.165991
322.560120	1144.586914	3417.832275	1595.140137	19.819824
322.931030	1115.005249	3508.853027	1586.037964	19.676804
323.301910	1174.168701	3590.771729	1656.579102	19.962336
323.672729	1124.107300	3779.640137	1622.446289	18.766066
324.043549	1140.035889	3829.701416	1617.895264	17.766499
324.414337	1162.791138	3966.232666	1711.191650	19.561689
324.785095	1089.974487	4241.570801	1736.222412	20.505417
325.155792	1080.872437	4216.540039	1667.956787	18.722788
325.526428	1151.413574	4312.111816	1756.702026	19.150467
325.897034	1160.515625	4091.386475	1656.579102	16.925463
326.267670	1078.596802	4116.416992	1638.375000	18.426970
326.638184	1165.066650	3959.406250	1706.640625	19.381107
327.008728	1083.147949	4152.825684	1809.039063	23.647144
327.379211	1101.352051	4064.080078	1758.977539	22.196621
327.749634	1103.627563	4043.600586	1763.528564	22.445818
328.120026	1133.209351	4077.733398	1672.507813	18.315302
328.490417	1115.005249	3841.079102	1704.365112	21.619366
328.860748	1058.117188	3982.161377	1590.588989	18.210115
329.231079	1105.903076	3809.221924	1763.528564	24.326597
329.601318	1171.893188	3797.844238	1711.191650	20.537262
329.971558	1076.321289	3879.762939	1656.579102	20.698051
330.341736	1130.933838	3941.202148	1633.823975	17.894737
330.711914	1133.209351	3925.273438	1758.977539	22.412388
331.082062	1155.964600	4007.192139	1581.486938	14.924180
331.452148	1212.852539	3968.508301	1683.885376	17.093311
331.822174	1137.760376	3943.477539	1722.569214	20.843470
332.192200	1169.617676	4064.080078	1713.467163	18.789309
332.562134	1121.831787	4084.559814	1649.752563	17.818739
332.932129	1119.556274	4134.621094	1690.711914	18.943394
333.302063	1144.586914	4282.530273	1638.375000	15.736042
333.671906	1174.168701	4325.765137	1727.120239	17.545126
334.041718	1126.382813	4314.387207	1784.008301	20.628124
334.411499	1103.627563	4362.173340	1779.457275	20.740223
334.781281	1117.280762	4318.938477	1777.181763	20.611229
335.151001	1160.515625	4423.612305	1758.977539	18.340305
335.520721	1135.484863	4198.335938	1799.937012	21.693911
335.890350	1126.382813	4266.601563	1702.089600	18.333334
336.259979	1174.168701	4355.346680	1822.692139	20.386267
336.629547	1135.484863	4382.652832	1686.160889	16.958656
336.999084	1144.586914	4273.428223	1708.916138	18.036364
337.368622	1165.066650	4419.061523	1711.191650	16.783216
337.738098	1096.801025	4421.336914	1729.395752	19.028061
338.107513	1112.729614	4328.040527	1706.640625	18.471340
338.476898	1165.066650	4355.346680	1692.987427	16.547789
338.846252	1087.698975	4371.275391	1674.783325	17.879417
339.215576	1080.872437	4507.806641	1688.436401	17.729082
339.584869	1124.107300	4243.846191	1665.681274	17.359594
339.954132	1137.760376	4485.051270	1672.507813	15.975529
340.323334	1035.361938	4312.111816	1622.446289	17.916666
340.692505	1126.382813	4237.019531	1617.895264	15.801023
341.061646	1130.933838	4082.284424	1613.344238	16.345411
341.430786	1130.933838	4300.734375	1720.293701	18.592964
341.799896	1146.862427	4382.652832	1743.048950	18.424757
342.168915	1108.178589	4437.265625	1731.671387	18.728643
342.537903	1158.240112	4523.735352	1640.650513	14.334010
342.906830	1062.668213	4566.970215	1731.671387	19.090912
343.275757	1108.178589	4687.572754	1665.681274	15.575337
343.644684	1176.444214	4758.113770	1665.681274	13.659470
344.013550	1155.964600	4849.134766	1708.916138	14.972274
344.382355	1140.035889	4749.011719	1761.253052	17.213116
344.751129	1117.280762	5090.339844	1697.538574	14.604812
345.119873	1142.311401	5306.514648	1897.784302	18.142076
345.488586	1126.382813	5304.238770	1834.069824	16.938999
345.857269	1169.617676	5497.658203	1815.865601	14.931651
346.225891	1126.382813	5720.659180	1877.304688	16.344727
346.594482	1178.719727	5527.240234	1900.059814	16.588173
346.963043	976.198425	5600.056641	1865.927002	19.242125
347.331543	1074.045776	5397.535156	1849.998413	17.947371
347.700043	1115.005249	5254.177734	1838.620850	17.482132
348.068512	1135.484863	5133.574707	1761.253052	15.651679
348.436951	1080.872437	5067.584961	1752.151001	16.837898
348.805328	1105.903076	4824.104004	1729.395752	16.768665
349.173645	1153.689087	4846.859375	1706.640625	14.972273
349.541931	1169.617676	4924.227051	1699.814087	14.121214
349.910217	1096.801025	4937.880371	1777.181763	17.713270
350.278473	1085.423462	5147.228027	1736.222412	16.022409
350.646667	1092.250000	5026.625488	1702.089600	15.500290
351.014801	1128.658325	5249.626465	1743.048950	14.908890
351.382935	1144.586914	5279.208496	1806.763550	16.015411
351.751007	1087.698975	5204.116211	1722.569214	15.422885
352.119049	1140.035889	5267.830566	1738.497925	14.498347
352.487091	1112.729614	5315.616699	1813.590088	16.675692
352.855072	1069.494751	5440.770020	1754.426514	15.668922
353.222992	1149.138062	5192.738281	1745.324463	14.743951
353.590881	1201.474976	5565.923828	1802.212524	13.764339
353.958740	1126.382813	5556.821777	1840.896362	16.127377
354.326599	1158.240112	5759.343262	1802.212524	13.996044
354.694397	1121.831787	5825.333008	1802.212524	14.465411
355.062134	1140.035889	6059.711914	1900.059814	15.448659
355.429840	1133.209351	6241.753418	1870.478149	14.432074
355.797516	1103.627563	6294.090332	1900.059814	15.344147
356.165192	1167.342163	6118.875488	1893.233276	14.659926
356.532776	1160.515625	6512.540527	1856.824951	13.010203
356.900360	1135.484863	6608.112305	1918.264038	14.303535
357.267883	1101.352051	6705.959961	1902.335449	14.291515
357.635376	1124.107300	7195.196777	1977.427612	14.055472
358.002808	1144.586914	7529.698242	2082.101563	14.682824
358.370270	1128.658325	7525.147461	2052.519775	14.443258
358.737640	1117.280762	7591.137207	2072.999512	14.762742
359.105011	1115.005249	7613.892578	2059.346436	14.530813
359.472321	1137.760376	7504.667480	2034.315552	14.081487
359.839569	1165.066650	7406.820313	1895.508789	11.702515
360.206787	1099.076538	7174.717285	1909.161987	13.333334
360.574005	1121.831787	7306.697266	2002.458252	14.238410
360.941193	1108.178589	8005.282227	2009.284912	13.064997
361.308319	1180.995239	8314.752930	2025.213501	11.834131
361.675415	1071.770264	8747.101563	2150.367188	14.052774
362.042450	1201.474976	9238.614258	2227.734863	12.768970
362.409424	1135.484863	9655.035156	2389.296875	14.716880
362.776428	1099.076538	10223.915039	2298.276123	13.142145
363.143402	1049.015137	9670.963867	2284.622803	14.330956
363.510284	1144.586914	8986.031250	2170.846924	13.087640
363.877136	1096.801025	8194.150391	2164.020264	15.036870
364.243988	1146.862427	7582.035156	1991.080688	13.118813
364.610779	1103.627563	7247.533691	2061.621826	15.592592
364.977539	1146.862427	7361.309570	1915.988525	12.376420
365.344269	1137.760376	6928.960938	1947.845825	13.988213
365.710938	1140.035889	6940.338379	2004.733887	14.907808
366.077576	1153.689087	6803.807129	1920.539551	13.572290
366.444183	1089.974487	6742.368164	1906.886475	14.452497
366.810760	1142.311401	6580.806152	1849.998413	13.012553
367.177277	1103.627563	6665.000488	1920.539551	14.689034
367.543823	1062.668213	6787.878418	1909.161987	14.785376
367.910248	1094.525513	6567.152832	1849.998413	13.804574
368.276642	1146.862427	6617.214355	1893.233276	13.643928
368.643036	1180.995239	6564.877441	1836.345337	12.172444
369.009399	1128.658325	6485.234375	1804.488037	12.616822
369.375671	1121.831787	6321.396973	1777.181763	12.603937
369.741974	1153.689087	6398.764648	1840.896362	13.101952
370.108215	1064.943726	6514.815918	1784.008301	13.194155
370.474396	1105.903076	6341.876465	1786.283813	12.994349
370.840546	1135.484863	6419.244141	1802.212524	12.618434
371.206665	1115.005249	6437.448242	1777.181763	12.441215
371.572784	1155.964600	6621.765625	1856.824951	12.822647
371.938843	1105.903076	6726.439453	1831.794189	12.914980
372.304840	1076.321289	6767.398926	1822.692139	13.114755
372.670807	1165.066650	6776.500977	1843.171875	12.084347
373.036713	1231.056763	6899.378906	1840.896362	10.758732
373.402649	1110.454102	6678.653320	1838.620850	13.077239
373.768524	1083.147949	6771.949707	1875.029175	13.920000
374.134308	1135.484863	6851.593262	1820.416626	11.982484
374.500122	1144.586914	6865.246094	1822.692139	11.853621
374.865875	1060.392700	6944.889648	1856.824951	13.534415
375.231567	1158.240112	6799.256348	1820.416626	11.738604
375.597260	1128.658325	7097.349609	1947.845825	13.724742
375.962891	1087.698975	7308.972656	1913.713013	13.277250
376.328461	1201.474976	7242.982910	1849.998413	10.734464
376.694031	1092.250000	7393.166992	1943.294800	13.506681
377.059540	1092.250000	7786.832031	1931.917114	12.542487
377.425049	1087.698975	8210.079102	1913.713013	11.597445
377.790497	1115.005249	8298.824219	1961.498901	11.783338
378.155945	1101.352051	8606.019531	2072.999512	12.947242
378.521301	1099.076538	8460.386719	2043.417725	12.828439
378.886597	1076.321289	8371.640625	2004.733887	12.726141
379.251892	1117.280762	8016.659668	1993.356201	12.697888
379.617157	1078.596802	7784.556641	1890.957764	12.114015
379.982422	1110.454102	7682.158203	1938.743774	12.603880
380.347595	1051.290649	7456.881836	1881.855713	12.966251
380.712738	1119.556274	7370.412109	1972.876587	13.651256
381.077820	1128.658325	7481.912598	1902.335449	12.177650
381.442902	1130.933838	7402.269043	1793.110352	10.558781
381.807953	1153.689087	7545.626953	1847.722900	10.857956
382.172974	1112.729614	7363.585449	1881.855713	12.304333
382.537933	1069.494751	7356.758789	1820.416626	11.943540
382.902832	1176.444214	7493.290039	1784.008301	9.618156
383.267700	1142.311401	7616.167969	1861.375977	11.107206
383.632538	1105.903076	7620.719238	1859.100464	11.561298
383.997345	1153.689087	7739.046387	1859.100464	10.711816
384.362152	1026.259888	8103.129395	1961.498901	13.215434
384.726898	1089.974487	8080.374512	1911.437500	11.751302
385.091553	1133.209351	8212.354492	1886.406738	10.639666
385.456238	1108.178589	8175.946289	1788.559326	9.626530
385.820862	1133.209351	8094.027344	1915.988525	11.245505
386.185425	1117.280762	8212.354492	1922.815063	11.353431
386.549988	1092.250000	8296.548828	1918.264038	11.465571
386.914490	1155.964600	8580.989258	1920.539551	10.297272
387.278961	1199.199463	8560.508789	1941.019287	10.077281
387.643372	1210.577026	8635.601563	1886.406738	9.102054
388.007782	1115.005249	8535.478516	1950.121338	11.254216
388.372101	1146.862427	8592.366211	1927.366089	10.482885
388.736450	1119.556274	8646.979492	1865.927002	9.915355
389.100739	1151.413574	8631.050781	1952.396851	10.708852
389.464966	1137.760376	8426.253906	1877.304688	10.146737
389.829163	1135.484863	8369.365234	1872.753662	10.191885
390.193329	1053.566162	8526.375977	1886.406738	11.144946
390.557495	1105.903076	8478.590820	1829.518677	9.814815
390.921570	1146.862427	8590.090820	1868.202637	9.691228
391.285614	1085.423462	8883.632813	1895.508789	10.388094
391.649597	1055.841675	9202.206055	1854.549438	9.804469
392.013550	1064.943726	9568.565430	1963.774414	10.569975
392.377502	1058.117188	9871.208984	1977.427612	10.431190
392.741455	1176.444214	9925.821289	1979.703125	9.180756
393.105316	1080.872437	9859.832031	1941.019287	9.797822
393.469086	1151.413574	9618.625977	1954.672363	9.486696
393.832886	1062.668213	9641.381836	1856.824951	9.257294
394.196655	1130.933838	9586.769531	1961.498901	9.822389
394.560333	1124.107300	9773.362305	2002.458252	10.155221
394.924042	1160.515625	9937.199219	1972.876587	9.255898
395.287659	1142.311401	9975.882813	2038.866699	10.149409
395.651245	1128.658325	9814.321289	2020.662476	10.269845
396.014771	1146.862427	9434.309570	1954.672363	9.747392
396.378296	1105.903076	9108.910156	1877.304688	9.638897
396.741791	1099.076538	9036.092773	1895.508789	10.034404
397.105255	1130.933838	8890.459961	1950.121338	10.557184
397.468628	1137.760376	8617.397461	1875.029175	9.857013
397.832001	1089.974487	8653.805664	1786.283813	9.205776
398.195313	1064.943726	8692.489258	1827.243164	9.994034
398.558624	1042.188477	8854.051758	1877.304688	10.690359
398.921844	1137.760376	8774.408203	1945.570313	10.578070
399.285095	1135.484863	8672.009766	1893.233276	10.054348
399.648254	1160.515625	8926.868164	1838.620850	8.731321
400.011383	1037.637451	8958.725586	1895.508789	10.830221
400.374451	1158.240112	8801.714844	1881.855713	9.467103
400.737549	1135.484863	8815.367188	1856.824951	9.392593
401.100586	1158.240112	8617.397461	1900.059814	9.945087
401.463562	1121.831787	8844.949219	1911.437500	10.223925
401.826508	1117.280762	8988.307617	1838.620850	9.164498
402.189392	1121.831787	8797.163086	1879.580200	9.872518
402.552246	1158.240112	8883.632813	1820.416626	8.571428
402.915070	1089.974487	8963.276367	1879.580200	10.028902
403.277893	1112.729614	9231.788086	1863.651489	9.248878
403.640656	1103.627563	9359.216797	1913.713013	9.812571
404.003326	1167.342163	9682.340820	1827.243164	7.749866
404.366028	1174.168701	9789.290039	1959.223389	9.112520
404.728699	1117.280762	10121.516602	1906.886475	8.769269
405.091248	1149.138062	10430.987305	1970.601074	8.850208
405.453857	1119.556274	10622.130859	1981.978638	9.075671
405.816345	1105.903076	10394.579102	1920.539551	8.770211
406.178833	1121.831787	10248.945313	1906.886475	8.601347
406.541260	1115.005249	10394.579102	1952.396851	9.024031
406.903687	1171.893188	10085.108398	1895.508789	8.118458
407.266052	1203.750488	9932.648438	1920.539551	8.211679
407.628387	1174.168701	9880.311523	2009.284912	9.592264
407.990662	1153.689087	9684.616211	1900.059814	8.749000
408.352905	1126.382813	9896.240234	1956.947876	9.470679
408.715118	1117.280762	9914.444336	1859.100464	8.432487
409.077332	1130.933838	9529.880859	1931.917114	9.536711
409.439484	1167.342163	9816.596680	1970.601074	9.287030
409.801575	1146.862427	9764.259766	1906.886475	8.819647
410.163605	1167.342163	9809.770508	1870.478149	8.135861
410.525635	1169.617676	10219.364258	1906.886475	8.146845
410.887604	1160.515625	10114.690430	2002.458252	9.402794
411.249573	1169.617676	10349.068359	1906.886475	8.031731
411.611481	1046.739624	10235.292969	1913.713013	9.435363
411.973328	1169.617676	10267.149414	1854.549438	7.528765
412.335144	1126.382813	10201.160156	1988.805176	9.503510
412.696930	1115.005249	10219.364258	1904.610962	8.672832
413.058685	1096.801025	10103.312500	1929.641602	9.247094
413.420410	1185.546387	10155.649414	1929.641602	8.295280
413.782104	1103.627563	9934.923828	1934.192627	9.404793
414.143707	1101.352051	10221.639648	1927.366089	9.056887
414.505310	1199.199463	10246.669922	1950.121338	8.299799
414.866852	1158.240112	10201.160156	1931.917114	8.555611
415.228394	1112.729614	10567.518555	1956.947876	8.929002
415.589874	1071.770264	10681.294922	1941.019287	9.045703
415.951324	1151.413574	10544.763672	1859.100464	7.533914
416.312683	1196.923950	11029.449219	2025.213501	8.423976
416.674072	1169.617676	11241.073242	1950.121338	7.749661
417.035370	1162.791138	11332.093750	2047.968750	8.704408
417.396667	1089.974487	11839.535156	1966.049927	8.149872
417.757935	1062.668213	11850.912109	2050.244141	9.154186
418.119141	1108.178589	12192.240234	1979.703125	7.862863
418.480286	1135.484863	12686.028320	2111.683350	8.451538
418.841400	1158.240112	13109.275391	2175.397949	8.511044
419.202484	1144.586914	13525.695313	2266.418701	9.060835
419.563568	1049.015137	14215.178711	2227.734863	8.952643
419.924591	1133.209351	14847.773438	2227.734863	7.980753
420.285553	1089.974487	14786.333984	2268.694336	8.606082
420.646484	1124.107300	16060.625977	2393.847900	8.500914
421.007355	1076.321289	16636.332031	2437.082764	8.745248
421.368225	1171.893188	17164.253906	2384.745850	7.583951
421.729065	1151.413574	17617.082031	2487.144287	8.112217
422.089874	1092.250000	18195.064453	2591.818115	8.767962
422.450592	1099.076538	18108.593750	2450.735840	7.946488
422.811279	1074.045776	18092.666016	2528.103516	8.543922
423.171936	1151.413574	17962.960938	2594.093750	8.581484
423.532593	1103.627563	17792.296875	2464.388916	8.153804
423.893127	1101.352051	17967.511719	2544.032227	8.553697
424.253723	1203.750488	18302.013672	2480.317627	7.466063
424.614197	1151.413574	18393.035156	2457.562500	7.575558
424.974670	1110.454102	18729.812500	2525.828125	8.033062
425.335052	1108.178589	19203.119141	2578.165039	8.123742
425.695496	1144.586914	18263.330078	2523.552490	8.055297
426.055817	1162.791138	18358.902344	2516.726074	7.873495
426.416168	1140.035889	18479.503906	2548.583252	8.123360
426.776398	1130.933838	17225.693359	2546.307861	8.794005
427.136627	1076.321289	16615.853516	2414.327637	8.610338
427.496826	1212.852539	16404.228516	2389.296875	7.744159
427.856995	1124.107300	15714.747070	2314.204590	8.156581
428.217102	1074.045776	15057.121094	2282.347412	8.641172
428.577179	1067.219238	15182.274414	2371.092773	9.237467
428.937195	1108.178589	14877.355469	2261.867676	8.378780
429.297180	1185.546387	14313.025391	2216.357178	7.852314
429.657135	1165.066650	14167.392578	2248.214600	8.330417
430.017059	1130.933838	14408.597656	2227.734863	8.260497
430.376984	1124.107300	14117.331055	2200.428711	8.283713
430.736786	1108.178589	13805.584961	2236.836914	8.888888
431.096588	1151.413574	13566.655273	2220.908203	8.614367
431.456360	1133.209351	13876.125977	2207.255127	8.428571
431.816071	1130.933838	13266.286133	2182.224365	8.663041
432.175781	1124.107300	13630.369141	2145.816162	8.169579
432.535400	1108.178589	13589.410156	2070.723877	7.711942
432.895020	1110.454102	13659.951172	2150.367188	8.286492
433.254578	1096.801025	13659.951172	2170.846924	8.549176
433.614105	1055.841675	14055.891602	2275.520752	9.382111
433.973602	1094.525513	14492.791992	2175.397949	8.067256
434.333038	1119.556274	14215.178711	2223.183838	8.427454
434.692444	1115.005249	14588.364258	2141.265137	7.616956
435.051819	1062.668213	14688.486328	2321.031250	9.235137
435.411133	1110.454102	14825.017578	2261.867676	8.395554
435.770416	1096.801025	13978.524414	2291.449463	9.273980
436.129669	1099.076538	14740.824219	2245.938965	8.407005
436.488861	1062.668213	14283.444336	2289.173828	9.277107
436.848083	1180.995239	14151.463867	2277.796387	8.456141
437.207184	1199.199463	14219.729492	2321.031250	8.615869
437.566254	1135.484863	14490.516602	2175.397949	7.786676
437.925293	1110.454102	14465.485352	2275.520752	8.723804
438.284363	1146.862427	14474.587891	2268.694336	8.417279
438.643311	1121.831787	14895.559570	2286.898438	8.458615
439.002258	1140.035889	14784.058594	2323.306641	8.672448
439.361145	1260.638550	15532.705078	2357.439453	7.684948
439.719971	1124.107300	16067.452148	2396.123291	8.512258
440.078827	1105.903076	16160.749023	2332.408936	8.146917
440.437592	1128.658325	16809.271484	2441.633789	8.373240
440.796295	1049.015137	16959.457031	2464.388916	8.895880
441.155029	1103.627563	17767.265625	2580.440674	8.862489
441.513672	1110.454102	18297.462891	2530.379150	8.261619
441.872253	1187.821899	18154.105469	2491.695313	7.685086
442.230865	1076.321289	17605.705078	2614.573486	9.306169
442.589386	1085.423462	17739.960938	2512.175049	8.566744
442.947876	1121.831787	17587.500000	2553.134277	8.692648
443.306335	1160.515625	17435.041016	2475.766602	8.081655
443.664764	1158.240112	16292.728516	2505.348389	8.900917
444.023102	1105.903076	16809.271484	2391.572266	8.187220
444.381500	1071.770264	16688.669922	2482.593262	9.033951
444.739777	1115.005249	16829.751953	2414.327637	8.268172
445.098022	1112.729614	17027.722656	2443.909424	8.364313
445.456238	1074.045776	16816.099609	2564.511963	9.468054
445.814423	1092.250000	17423.662109	2548.583252	8.917375
446.172577	1124.107300	18329.320313	2505.348389	8.028038
446.530701	1117.280762	18502.259766	2544.032227	8.206806
446.888733	1146.862427	18923.230469	2587.267090	8.102920
447.246765	1071.770264	19824.337891	2817.094727	9.307122
447.604736	1135.484863	19398.814453	2778.410889	8.995764
447.962677	1069.494751	19378.335938	2803.441650	9.470544
448.320587	1103.627563	19612.712891	2785.237549	9.085321
448.678436	1171.893188	19376.060547	2730.625000	8.562500
449.036255	1101.352051	19171.263672	2732.900391	9.029088
449.394043	1080.872437	18165.482422	2669.185791	9.296750
449.751770	1121.831787	18577.351563	2625.950928	8.616868
450.109467	1130.933838	18195.064453	2616.848877	8.707828
450.467163	1121.831787	17692.173828	2582.716064	8.816259
450.824768	1137.760376	17526.060547	2632.777588	9.122466
451.182343	1140.035889	17180.181641	2553.134277	8.809760
451.539886	1087.698975	16511.179688	2503.072998	9.176748
451.897369	1074.045776	16818.375000	2532.654541	9.264343
452.254822	1108.178589	16527.107422	2482.593262	8.913815
452.612274	1115.005249	17064.130859	2637.328613	9.544870
452.969635	1119.556274	16850.232422	2519.001465	8.896281
453.326965	1121.831787	16579.445313	2544.032227	9.200647
453.684326	1110.454102	16574.892578	2496.246338	8.961155
454.041534	1042.188477	16290.453125	2457.562500	9.282197
454.398773	1144.586914	15771.634766	2368.817139	8.369633
454.755951	1112.729614	15605.521484	2471.215576	9.373528
455.113098	1096.801025	15077.600586	2462.113525	9.765625
455.470215	1094.525513	15207.305664	2377.919189	9.093841
455.827240	1121.831787	15088.978516	2434.807373	9.400456
456.184265	1099.076538	15048.019531	2357.439453	9.021206
456.541260	1160.515625	14916.039063	2323.306641	8.453266
456.898193	1099.076538	15207.305664	2307.378174	8.564516
457.255096	1115.005249	15352.938477	2468.940186	9.509350
457.611969	1146.862427	15141.315430	2357.439453	8.650406
457.968781	1115.005249	15109.458008	2343.786377	8.780487
458.325531	1149.138062	15318.805664	2468.940186	9.314277
458.682312	1137.760376	16374.647461	2361.990479	8.034647
459.039001	1128.658325	16679.568359	2505.348389	8.852794
459.395630	1176.444214	17664.867188	2689.665527	9.177477
459.752289	1128.658325	18577.351563	2721.522949	9.128847
460.108856	1115.005249	20338.605469	2858.054199	9.067235
460.465363	1190.097412	20923.414063	2958.177002	8.959870
460.821899	1112.729614	21157.792969	2805.717041	8.445908
461.178345	1124.107300	20495.615234	2853.503174	8.927524
461.534760	1069.494751	20183.869141	2771.584229	8.904761
461.891144	1074.045776	19822.062500	2757.931152	8.981671
462.247467	1130.933838	18272.431641	2655.532715	8.894198
462.603760	1108.178589	18226.921875	2598.644775	8.706633
462.960052	1076.321289	17271.203125	2603.195801	9.428130
463.316254	1042.188477	16859.333984	2680.563477	10.358222
463.672424	1128.658325	16349.617188	2448.460449	8.670953
464.028564	1112.729614	16115.238281	2478.042236	9.100562
464.384644	1121.831787	16010.564453	2471.215576	9.063121
464.740723	1087.698975	15917.267578	2525.828125	9.697714
465.096741	1078.596802	16167.575195	2464.388916	9.184134
465.452698	1160.515625	15687.440430	2382.470215	8.411654
465.808655	1080.872437	15869.482422	2498.521729	9.586088
466.164520	1176.444214	15928.645508	2453.011475	8.653402
466.520355	1149.138062	16392.851563	2507.624023	8.911778
466.876190	1080.872437	16515.730469	2498.521729	9.184725
467.231964	1124.107300	16388.300781	2487.144287	8.929637
467.587677	1210.577026	17095.988281	2596.369141	8.723678
467.943390	1153.689087	17398.632813	2566.787354	8.698696
468.299011	1165.066650	16822.925781	2550.858887	8.850458
468.654633	1060.392700	16722.802734	2464.388916	8.964113
469.010223	1121.831787	16768.312500	2619.124512	9.569518
469.365723	1135.484863	16190.330078	2548.583252	9.386336
469.721191	1169.617676	16538.484375	2523.552490	8.809594
470.076660	1110.454102	15651.032227	2539.481201	9.827856
470.432068	1092.250000	16035.594727	2480.317627	9.288868
470.787445	1130.933838	15753.430664	2521.277100	9.508247
471.142792	1135.484863	15707.919922	2505.348389	9.400374
471.498016	1130.933838	16269.973633	2525.828125	9.213888
471.853271	1153.689087	16044.697266	2439.358398	8.633863
472.208496	1064.943726	15944.574219	2459.837891	9.374521
472.563660	1137.760376	16101.584961	2562.236328	9.519464
472.918762	1130.933838	16356.443359	2548.583252	9.311014
473.273865	1155.964600	16870.710938	2500.797363	8.557775
473.628876	1108.178589	17596.601563	2698.767578	9.646701
473.983917	1128.658325	17155.150391	2630.501953	9.371007
474.338837	1144.586914	17239.345703	2596.369141	9.020217
474.693787	1160.515625	17255.273438	2603.195801	8.963665
475.048645	1062.668213	17146.048828	2559.960938	9.309565
475.403503	1146.862427	17264.376953	2559.960938	8.767471
475.758270	1069.494751	17598.876953	2562.236328	9.030837
476.113037	1117.280762	17073.232422	2555.409912	9.013121
476.467773	1155.964600	17755.888672	2671.461426	9.129540
476.822418	1187.821899	18370.279297	2810.268311	9.442459
477.177063	1162.791138	18236.023438	2778.410889	9.462881
477.531647	1085.423462	18741.189453	2755.655762	9.459982
477.886200	1117.280762	19159.884766	2707.869873	8.815741
478.240723	1053.566162	19487.560547	2894.462402	9.986421
478.595184	1221.954712	19899.429688	2778.410889	8.333333
478.949585	1105.903076	20202.074219	2919.493164	9.497140
479.303986	1144.586914	20570.708984	2905.840088	9.066417
479.658325	1067.219238	20618.494141	2901.289063	9.380819
480.012634	1039.912964	20866.525391	2896.738037	9.365316
480.366913	1124.107300	21510.498047	2935.421875	8.884920
480.721130	1117.280762	21774.458984	3051.473389	9.363296
481.075317	1185.546387	22186.328125	3092.432861	9.080074
481.429474	1174.168701	23121.566406	3172.075928	9.103162
481.783569	1169.617676	23977.162109	3178.902588	8.809738
482.137604	1108.178589	25519.964844	3354.117676	9.200224
482.491669	1030.810913	27715.843750	3520.230713	9.328899
482.845612	1158.240112	30471.500000	3834.252441	9.129016
483.199554	1099.076538	34078.199219	4054.978027	8.962948
483.553436	1228.781250	39191.292969	4676.195313	9.081101
483.907318	1076.321289	46238.582031	5142.677246	9.003881
484.261139	1124.107300	52971.847656	6057.436523	9.515032
484.614899	1174.168701	56059.730469	6275.886230	9.295191
484.968628	1185.546387	56178.058594	6341.876465	9.376422
485.322357	1128.658325	54141.464844	5998.272949	9.185733
485.675964	1133.209351	50912.503906	5834.435547	9.444139
486.029572	1083.147949	47458.261719	5390.708984	9.288519
486.383148	1137.760376	44158.757813	5049.380859	9.092353
486.736694	1190.097412	42135.820313	4953.808594	9.191952
487.090149	1153.689087	41844.550781	4846.859375	9.076166
487.443604	1121.831787	42311.035156	5006.145996	9.430418
487.796997	1180.995239	43730.957031	4983.390625	8.936308
488.150360	1060.392700	45353.406250	5135.850586	9.201131
488.503693	1115.005249	45690.183594	5254.177734	9.285823
488.856964	1153.689087	45214.597656	5199.564941	9.182461
489.210175	1080.872437	43407.835938	4985.666016	9.225309
489.563416	1101.352051	41471.367188	4746.736328	9.029930
489.916565	1060.392700	39239.082031	4523.735352	9.071404
490.269653	1160.515625	36629.058594	4389.479492	9.103740
490.622772	1099.076538	35306.980469	4234.744141	9.166500
490.975769	1165.066650	35072.601563	4171.029785	8.865177
491.328735	1121.831787	36212.636719	4262.050293	8.948835
491.681732	1069.494751	38310.667969	4482.775879	9.165343
492.034607	1083.147949	39716.941406	4710.328125	9.388620
492.387482	1185.546387	40822.843750	4664.817871	8.777772
492.740326	1119.556274	40385.941406	4655.715332	9.005563
493.093079	1135.484863	38711.160156	4551.041504	9.089808
493.445862	1103.627563	35589.144531	4211.988770	9.013527
493.798523	1176.444214	33186.195313	3948.028564	8.658563
494.151215	1128.658325	30680.847656	3836.528076	9.163009
494.503815	1076.321289	28628.328125	3608.976074	9.192269
494.856384	1151.413574	27258.462891	3488.373291	8.951451
495.208923	1074.045776	25824.884766	3340.464600	9.156938
495.561432	1021.708862	24709.880859	3263.096924	9.462056
495.913879	1162.791138	24639.339844	3244.892578	8.868857
496.266296	1051.290649	24532.390625	3319.984863	9.661789
496.618683	1155.964600	24648.441406	3283.576416	9.056567
496.970978	1180.995239	25073.962891	3317.709229	8.942857
497.323273	1180.995239	24837.308594	3247.168213	8.734129
497.675507	1140.035889	25403.914063	3379.148438	9.228172
498.027710	1092.250000	25426.669922	3158.422852	8.490742
498.379852	1133.209351	25199.117188	3279.025391	8.916413
498.731995	1249.260864	25349.300781	3308.607178	8.544991
499.084076	1233.332275	24147.826172	3269.923340	8.887785
499.436096	1135.484863	24684.849609	3231.239502	8.899410
499.788086	1158.240112	23786.019531	3240.341553	9.201529
500.140106	1228.781250	23654.039063	3174.351563	8.675799
500.491943	1160.515625	22611.849609	3033.269287	8.730244
500.843842	1151.413574	22413.880859	3053.749023	8.946918
501.195679	1133.209351	22154.470703	2855.778564	8.194414
501.547455	1103.627563	21685.712891	3033.269287	9.375346
501.899231	1103.627563	21556.007813	2955.901611	9.056520
502.250885	1064.943726	21298.875000	2969.554688	9.412955
502.602600	1115.005249	20868.800781	2974.105713	9.411359
502.954193	1076.321289	21328.457031	2992.309814	9.460673
503.305786	1064.943726	21307.976563	2944.523926	9.285072
503.657379	1103.627563	21460.437500	2958.177002	9.110216
504.008820	1146.862427	20850.597656	2976.381104	9.285137
504.360291	1135.484863	21296.599609	3005.962891	9.277652
504.711700	1074.045776	21408.099609	3040.095703	9.668755
505.063080	1108.178589	21615.171875	3087.881836	9.653795
505.414368	1128.658325	21521.875000	2939.972900	8.881947
505.765656	1119.556274	21394.447266	3106.085938	9.797979
506.116943	1151.413574	21774.458984	2939.972900	8.672625
506.468109	1171.893188	21282.945313	2944.523926	8.814212
506.819305	1101.352051	21182.822266	3046.922363	9.688386
507.170410	1096.801025	20952.996094	2937.697266	9.271143
507.521484	1174.168701	21203.302734	2951.350586	8.872984
507.872559	1155.964600	21708.468750	2962.728027	8.790965
508.223480	1162.791138	21733.500000	2855.778564	8.230088
508.574493	1183.270874	21692.539063	3028.718262	8.998115
508.925385	1103.627563	22197.705078	2983.207764	8.910464
509.276245	1105.903076	22397.951172	2930.870850	8.571123
509.627045	1128.658325	22477.593750	2980.932129	8.676188
509.977814	1087.698975	22905.392578	3042.371338	8.959116
510.328613	1165.066650	22816.646484	3126.565674	9.059381
510.679260	1119.556274	23030.546875	3103.810303	9.055976
511.029999	1137.760376	23233.068359	3128.841064	9.011328
511.380585	1126.382813	23055.576172	3160.698486	9.276747
511.731140	1153.689087	23608.527344	3140.218750	8.846778
512.081726	1151.413574	23781.468750	3267.647949	9.351433
512.432129	1078.596802	24288.908203	3228.964111	9.264707
512.782654	1076.321289	23997.642578	3108.361328	8.865284
513.133057	1149.138062	24323.041016	3169.800537	8.719561
513.483398	1162.791138	23963.509766	3190.280273	8.892216
513.833801	1149.138062	24245.673828	3279.025391	9.221674
514.183960	1235.607788	23624.457031	3290.403076	9.177762
514.534302	1099.076538	23799.671875	3147.045166	9.021651
514.884460	1105.903076	23524.333984	3192.555664	9.307755
515.234619	1085.423462	23360.496094	3269.923340	9.806927
515.584717	1076.321289	23663.140625	3178.902588	9.308886
515.934753	1110.454102	23610.804688	3208.484375	9.324433
516.284851	1108.178589	23558.466797	3192.555664	9.284410
516.634766	1089.974487	24161.480469	3078.779541	8.620179
516.984741	1069.494751	24311.664063	3317.709229	9.672997
517.334595	1067.219238	24819.105469	3317.709229	9.474995
517.684448	1158.240112	25633.742188	3381.423828	9.083302
518.034363	1039.912964	26398.316406	3490.648926	9.664393
518.384094	1142.311401	27431.402344	3486.097900	8.915434
518.733826	1171.893188	28783.062500	3679.517090	9.081919
519.083496	1085.423462	29151.697266	3681.792725	9.250851
519.433167	1126.382813	30034.599609	3800.119629	9.249055
519.782776	1149.138062	29845.730469	3702.272461	8.896995
520.132324	1105.903076	29472.544922	3684.068115	9.088721
520.481873	1146.862427	28835.400391	3583.945313	8.801776
520.831299	1130.933838	28207.355469	3611.251465	9.160434
521.180786	1094.525513	27611.169922	3624.904541	9.542606
521.530151	1085.423462	26832.941406	3540.710449	9.536015
521.879517	1167.342163	26209.449219	3447.414063	9.104952
522.228882	1087.698975	26798.808594	3456.516113	9.213204
522.578064	1167.342163	26188.968750	3244.892578	8.303019
522.927307	1144.586914	26498.439453	3322.260254	8.589123
523.276489	1055.841675	26211.724609	3454.240479	9.534147
523.625610	1069.494751	26625.869141	3517.955078	9.580625
523.974792	1146.862427	27244.810547	3547.536865	9.198709
524.323792	1119.556274	26987.675781	3445.138428	8.990148
524.672852	1130.933838	27533.800781	3570.292236	9.238991
525.021790	1083.147949	28635.154297	3715.925537	9.555666
525.370728	1092.250000	29734.230469	3713.649902	9.152300
525.719604	1171.893188	31470.453125	3954.855225	9.185129
526.068420	1171.893188	33006.429688	4127.794922	9.285205
526.417297	1165.066650	34314.855469	4252.948242	9.314936
526.765991	1037.637451	35332.011719	4318.938477	9.568045
527.114746	1083.147949	36481.148438	4541.939453	9.771150
527.463379	1146.862427	38099.042969	4598.827637	9.341710
527.812012	1155.964600	40194.800781	4730.807617	9.157146
528.160706	1155.964600	43064.230469	5208.666992	9.670413
528.509155	1180.995239	47123.761719	5392.984375	9.167905
528.857727	1151.413574	52205.000000	5914.078613	9.328757
529.206177	1140.035889	55520.433594	6453.376953	9.770691
529.554565	1076.321289	56421.539063	6585.357422	9.953951
529.902893	1135.484863	55429.410156	6401.040039	9.698240
530.251221	1080.872437	53292.695313	6048.334473	9.514055
530.599548	1112.729614	49820.253906	5725.210449	9.469750
530.947876	1142.311401	46748.300781	5438.494629	9.420218
531.296021	1142.311401	43280.406250	5138.125977	9.482665
531.644165	1194.648438	40602.117188	4915.125000	9.441044
531.992249	1103.627563	38679.300781	4703.501465	9.580332
532.340454	1121.831787	37277.582031	4589.725586	9.591541
532.688354	1149.138062	36927.152344	4523.735352	9.432041
533.036438	1117.280762	38023.953125	4535.112793	9.260743
533.384338	1201.474976	39753.347656	4812.726563	9.367253
533.732239	1053.566162	41334.835938	5001.594727	9.801152
534.080139	1219.679199	42292.828125	4960.635254	9.108033
534.427917	1133.209351	41801.316406	5022.074219	9.562444
534.775757	1128.658325	40153.839844	4912.849609	9.696795
535.123474	1178.719727	38340.250000	4685.297363	9.436042
535.471191	1185.546387	36497.078125	4648.889160	9.807965
535.818848	1194.648438	35627.828125	4309.836426	9.047053
536.166382	1071.770264	34335.332031	4312.111816	9.741415
536.513977	1044.463989	34048.617188	4378.102051	10.100663
536.861511	1162.791138	34137.363281	4362.173340	9.702575
537.208984	1051.290649	34396.773438	4337.142578	9.853964
537.556396	1185.546387	33971.250000	4350.795898	9.654359
537.903809	1105.903076	33286.316406	4246.121582	9.758167
538.251160	1149.138062	32298.742188	4159.651855	9.664694
538.598389	1176.444214	31688.902344	4161.927734	9.784473
538.945740	1085.423462	30273.529297	3820.599365	9.370857
539.292969	1135.484863	29722.853516	4052.702637	10.204569
539.640137	1076.321289	29379.250000	3834.252441	9.744331
539.987244	1133.209351	29527.158203	3993.539063	10.073730
540.334351	1119.556274	30134.722656	4016.294189	9.983530
540.681458	1080.872437	31845.914063	4052.702637	9.659763
541.028442	1185.546387	34210.179688	4416.785645	9.784330
541.375366	1194.648438	37277.582031	4705.776855	9.730718
541.722290	1137.760376	40238.035156	5106.268555	10.149567
542.069153	1124.107300	43157.527344	5213.218262	9.728237
542.416016	1140.035889	42868.535156	5422.565918	10.262842
542.762756	1094.525513	42276.902344	5233.697754	10.050835
543.109558	1126.382813	40920.691406	5051.656250	9.863907
543.456299	1105.903076	39582.683594	5022.074219	10.178011
543.802917	1060.392700	38246.953125	4896.920898	10.316976
544.149536	1078.596802	36767.863281	4826.379395	10.501148
544.496094	1174.168701	34230.660156	4546.490723	10.201694
544.842651	1099.076538	32988.226563	4491.877930	10.639359
545.189148	1044.463989	31199.666016	4145.999023	10.285241
545.535583	1105.903076	29854.832031	4073.182129	10.321355
545.882019	1126.382813	29354.218750	3982.161377	10.116888
546.228333	1124.107300	28368.917969	3988.988037	10.515326
546.574707	1130.933838	28441.734375	3920.722412	10.214964
546.920898	1155.964600	28580.541016	3945.753174	10.172585
547.267212	1142.311401	28548.683594	3975.334961	10.337097
547.613342	1119.556274	28484.968750	3843.354736	9.953434
547.959473	1153.689087	27831.894531	3936.650879	10.431594
548.305664	1103.627563	27099.177734	3797.844238	10.364146
548.651611	1087.698975	26446.103516	3786.466553	10.642498
548.997742	1126.382813	25563.201172	3540.710449	9.879877
549.343689	1235.607788	24090.939453	3552.087891	10.135403
549.689575	1105.903076	23572.119141	3504.302002	10.675580
550.035522	1133.209351	22930.423828	3467.893799	10.710931
550.381287	1074.045776	21835.898438	3451.965088	11.453310
550.727173	1144.586914	21517.324219	3242.617188	10.298224
551.072876	1078.596802	21048.568359	3324.535889	11.246581
551.418640	1144.586914	21046.291016	3324.535889	10.953580
551.764282	1099.076538	20652.626953	3162.973877	10.555103
552.109863	1142.311401	20684.484375	3413.281250	11.620866
552.455505	1121.831787	20916.587891	3338.188965	11.196689
552.801025	1105.903076	20816.464844	3379.148438	11.533133
553.146545	1146.862427	21205.578125	3351.842041	10.992626
553.491943	1169.617676	21451.333984	3465.618164	11.320543
553.837341	1105.903076	21485.466797	3497.475586	11.735150
554.182800	1192.372925	21210.128906	3508.853027	11.572126
554.528015	1108.178589	21025.812500	3454.240479	11.778818
554.873352	1126.382813	20516.095703	3356.393066	11.500997
555.218628	1137.760376	20395.492188	3392.801514	11.709795
555.563721	1117.280762	20147.460938	3474.720215	12.387899
555.908875	1137.760376	19967.695313	3422.383301	12.132931
556.254028	1174.168701	19578.580078	3333.637939	11.733433
556.599121	1071.770264	19239.529297	3226.688477	11.861221
556.944031	1226.505737	19230.425781	3326.811523	11.665824
557.289063	1133.209351	18889.097656	3294.954102	12.174804
557.633972	1135.484863	18900.476563	3335.913574	12.386319
557.978882	1192.372925	18684.300781	3292.678711	12.007285
558.323792	1128.658325	18613.759766	3276.750000	12.285269
558.668518	1089.974487	18247.400391	3395.077148	13.435014
559.013306	1171.893188	18381.656250	3322.260254	12.495042
559.358032	1174.168701	18408.962891	3463.342773	13.282282
559.702637	1135.484863	18286.085938	3301.780762	12.631020
560.047363	1185.546387	18354.351563	3451.965088	13.200795
560.391846	1067.219238	18331.595703	3292.678711	12.890471
560.736450	1103.627563	18085.839844	3349.566650	13.225244
561.080933	1144.586914	18281.533203	3433.760986	13.358122
561.425354	1119.556274	18042.603516	3454.240479	13.795885
561.769775	1155.964600	18431.718750	3436.036377	13.198103
562.114136	1117.280762	18577.351563	3556.638916	13.971067
562.458496	1142.311401	18684.300781	3608.976074	14.061486
562.802673	1174.168701	18695.679688	3470.169189	13.103895
563.146912	1128.658325	18506.810547	3665.864014	14.599973
563.491150	1126.382813	18074.460938	3652.210938	14.903331
563.835266	1089.974487	18276.982422	3511.128662	14.087119
564.179443	1076.321289	18261.054688	3547.536865	14.380296
564.523438	1060.392700	18361.177734	3565.741211	14.481127
564.867493	1064.943726	18324.769531	3745.507324	15.530652
565.211426	1049.015137	18402.136719	3791.017578	15.801207
565.555359	1115.005249	18757.117188	3763.711426	15.013543
565.899231	1133.209351	19014.251953	3886.589600	15.398321
566.243042	1108.178589	19412.468750	3993.539063	15.763300
566.586914	1121.831787	20101.951172	4132.345703	15.861407
566.930603	1151.413574	20329.501953	4141.447754	15.590888
567.274292	1178.719727	20488.789063	4325.765137	16.297432
567.617981	1108.178589	20543.402344	4230.193359	16.063692
567.961609	1112.729614	20354.533203	4375.826660	16.958376
568.305237	1187.821899	19815.234375	4280.254395	16.601515
568.648682	1155.964600	19694.632813	4211.988770	16.484594
568.992188	1092.250000	19665.050781	4186.958496	16.662584
569.335632	1119.556274	19109.824219	4114.141602	16.645586
569.679016	1080.872437	19077.966797	4157.376465	17.094448
570.022461	1064.943726	18861.791016	4189.233887	17.555300
570.365662	1112.729614	19125.751953	4298.458984	17.685703
570.708984	1030.810913	18968.742188	4314.387207	18.305210
571.052185	1089.974487	19105.273438	4343.969238	18.062397
571.395386	1115.005249	19050.660156	4419.061523	18.421721
571.738525	1117.280762	19389.712891	4566.970215	18.879204
572.081604	1180.995239	19935.837891	4573.796875	18.090271
572.424683	1121.831787	20563.880859	4812.726563	18.984083
572.767578	1201.474976	20716.341797	4858.236816	18.738338
573.110596	1176.444214	20566.156250	4735.358887	18.354652
573.453552	1155.964600	20331.779297	4910.573730	19.579920
573.796387	1146.862427	20379.564453	4846.859375	19.238052
574.139282	1192.372925	20088.296875	4917.400391	19.713390
574.481995	1080.872437	20097.400391	4689.848145	18.978100
574.824768	1089.974487	20086.021484	4940.155762	20.268328
575.167480	1112.729614	20004.103516	4874.165527	19.910866
575.510132	1137.760376	19564.927734	4855.961426	20.177822
575.852722	1110.454102	19749.244141	5076.687012	21.279455
576.195251	1167.342163	19558.101563	5106.268555	21.417963
576.537842	1108.178589	19214.498047	4801.349121	20.397135
576.880188	1130.933838	18980.119141	4953.808594	21.417643
577.222717	1183.270874	18534.117188	4937.880371	21.639345
577.565063	1062.668213	18386.208984	4871.890137	21.988703
577.907410	1146.862427	18295.187500	4828.655273	21.470278
578.249756	1144.586914	17689.898438	4758.113770	21.840185
578.591919	1169.617676	17419.111328	4742.185547	21.985718
578.934204	1130.933838	16898.017578	4728.532227	22.817144
579.276306	1089.974487	16588.546875	4580.623535	22.522390
579.618469	1140.035889	16265.422852	4494.153809	22.175419
579.960571	1219.679199	16269.973633	4585.174316	22.361656
580.302551	1215.128052	15685.165039	4551.041504	23.053940
580.644531	1160.515625	15933.196289	4460.020996	22.335184
580.986511	1137.760376	15694.266602	4407.683594	22.463655
581.328369	1096.801025	15407.551758	4414.510254	23.183334
581.670227	1206.026001	15250.540039	4414.510254	22.845108
582.012024	1108.178589	15098.080078	4421.336914	23.682499
582.353821	1126.382813	15077.600586	4391.755371	23.405645
582.695496	1112.729614	14902.385742	4580.623535	25.148518
583.037231	1064.943726	14854.599609	4516.908691	25.033001
583.378845	1080.872437	15027.539063	4482.775879	24.392231
583.720398	1128.658325	14925.140625	4423.612305	23.882566
584.062012	1060.392700	14520.098633	4355.346680	24.480135
584.403442	1044.463989	14622.497070	4409.959473	24.786325
584.744934	1117.280762	14640.701172	4398.581543	24.263838
585.086365	1085.423462	14488.241211	4519.184082	25.619694
585.427734	1135.484863	14845.498047	4348.520020	23.435682
585.768982	1135.484863	14590.639648	4503.255859	25.029598
586.110291	1149.138062	14440.455078	4478.225098	25.047081
586.451599	1167.342163	14160.566406	4380.377441	24.728542
586.792725	1108.178589	14638.425781	4425.888184	24.520687
587.133850	1142.311401	14456.383789	4537.388672	25.499916
587.474915	1105.903076	14392.668945	4446.367676	25.141293
587.815979	1162.791138	14583.812500	4578.347656	25.449305
588.157043	1137.760376	14419.975586	4491.877930	25.252699
588.497925	1124.107300	14558.782227	4496.429199	25.101625
588.838867	1135.484863	14567.883789	4573.796875	25.597157
589.179749	1028.535400	14884.181641	4498.704590	25.045162
589.520569	1174.168701	14668.006836	4664.817871	25.868467
589.861450	1055.841675	15025.263672	4505.531250	24.694576
590.202087	1074.045776	15016.162109	4749.011719	26.358738
590.542847	1110.454102	14879.630859	4678.470703	25.913071
590.883484	1053.566162	15118.560547	4874.165527	27.163889
591.224121	1128.658325	15070.774414	4805.899902	26.375061
591.564636	1140.035889	14982.029297	4887.818848	27.075457
591.905151	1128.658325	14870.528320	4714.878906	26.097034
592.245667	1128.658325	14886.457031	4657.991211	25.653326
592.585999	1142.311401	14731.721680	4805.899902	26.959143
592.926453	1085.423462	14572.435547	4787.695801	27.450651
593.266724	1112.729614	14768.129883	4646.613281	25.879021
593.607056	1135.484863	14495.067383	4639.787109	26.230627
593.947388	1130.933838	14636.149414	4610.205078	25.762426
594.287476	1160.515625	14690.762695	4653.439941	25.815672
594.627686	1142.311401	14820.466797	4746.736328	26.351688
594.967773	1201.474976	15230.060547	4883.267578	26.244930
595.307861	1112.729614	15302.876953	4965.186523	27.148815
595.647888	1128.658325	14977.477539	4837.757324	26.782782
595.987854	1085.423462	15439.408203	4935.604492	26.823084
596.327820	1128.658325	15582.766602	4821.828613	25.551008
596.667725	1101.352051	16076.554688	4940.155762	25.634401
597.007568	1142.311401	16638.607422	5140.401367	25.800293
597.347351	1146.862427	16995.865234	5320.167480	26.331657
597.687073	1069.494751	17357.671875	5454.423340	26.920931
598.026794	1067.219238	17284.855469	5513.586914	27.416866
598.366455	1149.138062	16879.812500	5308.790039	26.442934
598.706116	1121.831787	16597.648438	5160.881348	26.099106
599.045654	1117.280762	16072.003906	4981.115234	25.836885
599.385193	1112.729614	15373.418945	5024.350098	27.429394
599.724731	1137.760376	15220.958984	4962.910645	27.161091
600.064087	1146.862427	14663.456055	4771.767090	26.818182
600.403564	1124.107300	14344.882813	4723.980957	27.228914
600.742920	1126.382813	14297.097656	4648.889160	26.744989
601.082153	1128.658325	13801.033203	4582.898926	27.258038
601.421387	1087.698975	14024.035156	4432.714355	25.857517
601.760620	1151.413574	14096.851563	4514.633301	25.979961
602.099854	1158.240112	14137.810547	4580.623535	26.367462
602.438843	1142.311401	13700.911133	4421.336914	26.109800
602.778015	1115.005249	14008.106445	4594.276367	26.985523
603.117065	1133.209351	14506.445313	4687.572754	26.578184
603.456055	1160.515625	14658.905273	4632.960449	25.724882
603.794983	1055.841675	15182.274414	4673.919922	25.612114
604.133850	1115.005249	15739.777344	5074.411621	27.073284
604.472778	1110.454102	16188.054688	4983.390625	25.686689
604.811584	1105.903076	16713.701172	5233.697754	26.447004
605.150330	1112.729614	17410.009766	5372.504395	26.137949
605.489075	1128.658325	17257.548828	5379.331055	26.354403
605.827698	1128.658325	17321.263672	5436.219238	26.602026
606.166382	1071.770264	17027.722656	5331.545410	26.697094
606.504883	1165.066650	16841.128906	5183.636230	25.635071
606.843445	1135.484863	16194.881836	4997.043457	25.642187
607.181946	1103.627563	15719.297852	4951.533203	26.327263
607.520386	1158.240112	15391.623047	4931.053711	26.506794
607.858826	1108.178589	14891.007813	4644.337891	25.656265
608.197083	1194.648438	14595.190430	4503.255859	24.690102
608.535461	1121.831787	14401.771484	4626.133789	26.387936
608.873718	1074.045776	14174.218750	4714.878906	27.792252
609.211914	1096.801025	14356.260742	4655.715332	26.840567
609.550171	1078.596802	14909.211914	4717.154785	26.307999
609.888245	1119.556274	15207.305664	4733.083496	25.650141
610.226318	1160.515625	15566.837891	4803.624512	25.288265
610.564392	1076.321289	15755.706055	4878.716797	25.902962
610.902344	1051.290649	15500.847656	4719.430176	25.385828
611.240295	1076.321289	15268.744141	4769.491699	26.022127
611.578247	1115.005249	15082.152344	4580.623535	24.812641
611.916138	1069.494751	14825.017578	4708.052734	26.451616
612.253845	1133.209351	14099.126953	4630.685059	26.974377
612.591675	1140.035889	13907.983398	4680.746094	27.731241
612.929382	1067.219238	13787.380859	4466.847168	26.726294
613.267090	1083.147949	13373.235352	4305.285156	26.217365
613.604736	1135.484863	13311.796875	4323.489746	26.182022
613.942261	1099.076538	13307.246094	4271.152344	25.983221
614.279785	1178.719727	13109.275391	4041.324951	23.993896
614.617310	1133.209351	12690.579102	4086.835449	25.556211
614.954712	1149.138062	12440.272461	3988.988037	25.151148
615.292175	1183.270874	12485.782227	4070.906738	25.548620
615.629517	1178.719727	12317.394531	4000.365479	25.331970
615.966797	1124.107300	12260.505859	3872.936523	24.683287
616.304138	1142.311401	12244.577148	3932.099854	25.128101
616.641296	1142.311401	12346.975586	3879.762939	24.431358
616.978516	1171.893188	12112.597656	3982.161377	25.686356
617.315552	1039.912964	12267.333008	3927.548828	25.719496
617.652771	1092.250000	12399.312500	3948.028564	25.256592
617.989685	1080.872437	12340.149414	3959.406250	25.565884
618.326721	1155.964600	12331.046875	3941.202148	24.923643
618.663696	1101.352051	12613.211914	3966.232666	24.886341
619.000549	1128.658325	12415.241211	3795.568604	23.629030
619.337463	1119.556274	12544.946289	3897.967041	24.317863
619.674194	1128.658325	12397.037109	3800.119629	23.707594
620.010986	1121.831787	12101.219727	3811.497314	24.497410
620.347778	1094.525513	11846.361328	3825.150391	25.396826
620.684387	1092.250000	12060.259766	3929.824463	25.871370
621.020996	1199.199463	12071.637695	3725.027588	23.231478
621.357605	1158.240112	11948.759766	3827.426025	24.736399
621.694214	1064.943726	11928.280273	3713.649902	24.382067
622.030579	1144.586914	11896.422852	3866.109863	25.312170
622.367065	1133.209351	11844.085938	3747.782715	24.410450
622.703430	1155.964600	11857.739258	3800.119629	24.707632
623.039795	1110.454102	11646.115234	3681.792725	24.406050
623.376160	1087.698975	11618.809570	3752.333740	25.302505
623.712402	1085.423462	11737.136719	3791.017578	25.400555
624.048645	1121.831787	11664.319336	3611.251465	23.613211
624.384766	1080.872437	11575.574219	3581.669678	23.829142
624.720886	1171.893188	11730.309570	3597.598389	22.974138
625.057007	1117.280762	11432.216797	3565.741211	23.737041
625.392944	1137.760376	11673.421875	3686.343750	24.190067
625.729004	1076.321289	11611.982422	3736.405273	25.248383
626.064941	1101.352051	11980.617188	3788.742188	24.701944
626.400818	1069.494751	12299.189453	3861.558838	24.863224
626.736633	1140.035889	12301.465820	3750.058350	23.384302
627.072449	1128.658325	12635.966797	3922.997803	24.283171
627.408264	1085.423462	12510.813477	3836.528076	24.078869
627.743896	1069.494751	12706.507813	3875.211914	24.110289
628.079590	1083.147949	12642.793945	3875.211914	24.153542
628.415161	1080.872437	12736.089844	3868.385254	23.916435
628.750793	1105.903076	12544.946289	3929.824463	24.686693
629.086365	1115.005249	12246.852539	3843.354736	24.509405
629.421753	1087.698975	12412.965820	3740.956299	23.427769
629.757263	1094.525513	12037.504883	3688.619141	23.705553
630.092651	1101.352051	11951.035156	3686.343750	23.825502
630.427917	1096.801025	11750.789063	3565.741211	23.173859
630.763184	1124.107300	11388.981445	3599.874023	24.118820
631.098511	1215.128052	11350.297852	3358.668701	21.149527
631.433716	1128.658325	11125.021484	3417.832275	22.900066
631.768799	1074.045776	10861.060547	3479.271240	24.575682
632.103943	1117.280762	10904.295898	3520.230713	24.552427
632.438965	1176.444214	10972.561523	3395.077148	22.648083
632.773987	1176.444214	10922.500000	3390.525879	22.717718
633.109070	1206.026001	10735.907227	3342.739990	22.421202
633.443848	1092.250000	10849.683594	3333.637939	22.971081
633.778870	1135.484863	10669.916992	3383.699463	23.579954
634.113708	1149.138062	10619.855469	3299.505127	22.705429
634.448425	1167.342163	10599.375977	3442.863037	24.125454
634.783264	1128.658325	10908.846680	3406.454590	23.289904
635.117859	1146.862427	10724.529297	3310.882813	22.594442
635.452576	1108.178589	10904.295898	3340.464600	22.787458
635.787170	1083.147949	10902.020508	3324.535889	22.827345
636.121704	1069.494751	10405.957031	3194.831299	22.763832
636.456177	1135.484863	10299.006836	3185.729004	22.373976
636.790588	1140.035889	10005.464844	3192.555664	23.151951
637.125122	1089.974487	10314.935547	3197.106689	22.841640
637.459412	1169.617676	10089.659180	3119.739014	21.862246
637.793762	1140.035889	9893.964844	3192.555664	23.446842
638.128052	1089.974487	9818.872070	3085.606201	22.862358
638.462280	1133.209351	9843.903320	3092.432861	22.492163
638.796509	1149.138062	9727.851563	3062.851074	22.307692
639.130615	1112.729614	9554.912109	2994.585449	22.291105
639.464722	1130.933838	9573.116211	2937.697266	21.401615
639.798767	1124.107300	9550.360352	3081.055176	23.224415
640.132751	1174.168701	9322.808594	3008.238525	22.507681
640.466736	1110.454102	9381.972656	2967.279053	22.448416
640.800598	1124.107300	9554.912109	2937.697266	21.511469
641.134521	1176.444214	9115.736328	2844.401123	21.008888
641.468262	1085.423462	9193.104492	2896.738037	22.340723
641.802063	1074.045776	9081.603516	2926.319824	23.131573
642.135803	1149.138062	8908.664063	2889.911377	22.434017
642.469421	1112.729614	9115.736328	2810.268311	21.211262
642.803101	1155.964600	9017.888672	2769.308838	20.520985
643.136658	1162.791138	8863.153320	2880.809326	22.310875
643.470215	1140.035889	8920.041992	2807.992676	21.439016
643.803711	1128.658325	8872.255859	2933.146240	23.302965
644.137085	1128.658325	8958.725586	2748.829102	20.691658
644.470581	1140.035889	8635.601563	2807.992676	22.252581
644.803833	1135.484863	8706.142578	2707.869873	20.769464
645.137207	1121.831787	8915.490234	2764.757813	21.080294
645.470459	1151.413574	8612.846680	2848.952148	22.750837
645.803589	1169.617676	8667.458984	2746.553711	21.031868
646.136780	1174.168701	8731.172852	2716.971924	20.415541
646.469849	1151.413574	8831.295898	2828.472412	21.837038
646.802979	1126.382813	8712.968750	2794.339600	21.985605
647.135986	1126.382813	8619.672852	2723.798340	21.317945
647.468994	1155.964600	8940.521484	2751.104736	20.491085
647.801941	1126.382813	8858.602539	2789.788574	21.512655
648.134766	1108.178589	8967.827148	2837.574463	22.003477
648.467651	1158.240112	8817.643555	2848.952148	22.073679
648.800354	1153.689087	8947.347656	2803.441650	21.167883
649.133179	1180.995239	8778.958984	2771.584229	20.934412
649.465881	1128.658325	8813.091797	2764.757813	21.291088
649.798462	1089.974487	8920.041992	2819.370361	22.086603
650.131104	1119.556274	8833.571289	2767.033203	21.356932
650.463623	1103.627563	8765.305664	2742.002686	21.384024
650.796143	1133.209351	8833.571289	2685.114502	20.153666
651.128662	1089.974487	8765.305664	2728.349365	21.345984
651.461060	1108.178589	8738.000000	2701.043213	20.876827
651.793396	1112.729614	8904.113281	2807.992676	21.758177
652.125732	1105.903076	8744.826172	2714.696289	21.060472
652.458008	1085.423462	8788.061523	2682.839111	20.738552
652.790222	1201.474976	8983.755859	2780.686523	20.292400
653.122437	1119.556274	8633.326172	2703.318604	21.078131
653.454529	1117.280762	8608.294922	2689.665527	20.990278
653.786621	1103.627563	8562.785156	2714.696289	21.598534
654.118713	1117.280762	8626.499023	2591.818115	19.636362
654.450623	1144.586914	8512.723633	2639.604248	20.290304
654.782654	1146.862427	8437.630859	2605.471436	20.006245
655.114502	1115.005249	8508.171875	2644.155273	20.683289
655.446350	1146.862427	8410.325195	2666.910400	20.927319
655.778198	1112.729614	8526.375977	2603.195801	20.104361
656.109863	1130.933838	8285.170898	2594.093750	20.451654
656.441650	1060.392700	8405.773438	2650.981689	21.654276
656.773254	1124.107300	8155.466797	2557.685303	20.388348
657.104919	1133.209351	8212.354492	2573.614014	20.347157
657.436462	1105.903076	8144.088867	2553.134277	20.562561
657.767944	1078.596802	8487.692383	2594.093750	20.454546
658.099548	1078.596802	8626.499023	2662.359375	20.982817
658.430908	1135.484863	8428.529297	2664.634766	20.967237
658.762268	1064.943726	8740.275391	2621.399902	20.278683
659.093628	1137.760376	8701.591797	2757.931152	21.419975
659.424927	1096.801025	9143.042969	2721.522949	20.192307
659.756226	1126.382813	9682.340820	2864.880615	20.319149
660.087341	1112.729614	9721.024414	2803.441650	19.640499
660.418518	1176.444214	9889.413086	2760.206787	18.177073
660.749573	1105.903076	9791.566406	2842.125488	19.989521
661.080627	1165.066650	9641.381836	2842.125488	19.785234
661.411621	1060.392700	9509.401367	2757.931152	20.091570
661.742554	1051.290649	9529.880859	2826.196777	20.933977
662.073547	1160.515625	9179.451172	2596.369141	17.905787
662.404297	1101.352051	9006.511719	2594.093750	18.883131
662.735229	1142.311401	8728.897461	2712.420898	20.695864
663.065979	1067.219238	8612.846680	2621.399902	20.597103
663.396667	1160.515625	8505.896484	2539.481201	18.773235
663.727417	1128.658325	8346.610352	2580.440674	20.113493
664.057922	1151.413574	8134.986816	2562.236328	20.202019
664.388611	1155.964600	8107.680664	2564.511963	20.261866
664.719116	1183.270874	7941.567383	2562.236328	20.404039
665.049622	1146.862427	7805.036133	2482.593262	20.061520
665.380005	1094.525513	7734.495117	2439.358398	20.253599
665.710388	1133.209351	7741.321777	2439.358398	19.765842
666.040771	1153.689087	7780.005859	2471.215576	19.883240
666.371033	1119.556274	7836.893555	2448.460449	19.783197
666.701294	1140.035889	7663.954102	2368.817139	18.835020
667.031555	1115.005249	7707.188965	2550.858887	21.781153
667.361633	1180.995239	7695.811523	2418.878662	19.001049
667.691772	1101.352051	7613.892578	2475.766602	21.104122
668.021790	1160.515625	7704.913574	2466.664551	19.958275
668.351807	1108.178589	7627.545898	2332.408936	18.778362
668.681763	1105.903076	7577.484375	2359.715088	19.374123
669.011719	1083.147949	7725.393066	2446.184814	20.520725
669.341614	1089.974487	7629.821289	2482.593262	21.294365
669.671387	1142.311401	7622.994629	2457.562500	20.294945
670.001221	1060.392700	7766.352539	2453.011475	20.766882
670.330933	1133.209351	7780.005859	2455.286865	19.890448
670.660583	1055.841675	7907.434570	2375.643799	19.262705
670.990173	1119.556274	7711.740234	2325.582275	18.294786
671.319763	1105.903076	7588.861816	2430.256104	20.428219
671.649292	1162.791138	7597.963867	2248.214600	16.867044
671.978821	1146.862427	7295.319824	2375.643799	19.985197
672.308289	1124.107300	7415.922363	2371.092773	19.819170
672.637695	1149.138062	7370.412109	2450.735840	20.921724
672.966980	1185.546387	7261.187012	2375.643799	19.588015
673.296326	1206.026001	7224.778320	2380.194824	19.508509
673.625610	1140.035889	7329.452637	2343.786377	19.448528
673.954773	1155.964600	7347.656738	2296.000488	18.412348
674.283936	1115.005249	7106.451660	2259.592041	19.103682
674.613037	1069.494751	7286.217773	2400.674561	21.412886
674.942078	1162.791138	7186.094727	2311.929199	19.078201
675.271118	1158.240112	7154.237305	2264.143311	18.444025
675.600098	1130.933838	7085.971680	2261.867676	18.991211
675.928955	1096.801025	7161.063965	2166.295898	17.636024
676.257813	1108.178589	6963.093750	2182.224365	18.344345
676.586670	1049.015137	6974.471191	2296.000488	21.044546
676.915466	1126.382813	6965.369141	2286.898438	19.875292
677.244141	1126.382813	6985.848633	2371.092773	21.242722
677.572876	1151.413574	6833.389160	2277.796387	19.823788
677.901489	1121.831787	6676.377930	2293.724854	21.097910
678.230042	1051.290649	6988.124512	2264.143311	20.429283
678.558594	1140.035889	7017.706055	2296.000488	19.667055
678.887085	1210.577026	6967.644531	2311.929199	19.130438
679.215515	1092.250000	6953.991699	2189.051025	18.711180
679.543945	1155.964600	7076.869629	2346.062012	20.099924
679.872253	1142.311401	7288.493164	2248.214600	17.993338
680.200562	1112.729614	7347.656738	2243.663574	18.138687
680.528809	1128.658325	7538.800293	2339.235352	18.885338
680.856995	1137.760376	7511.494141	2423.429688	20.171368
681.185120	1092.250000	7597.963867	2416.603027	20.356768
681.513306	1115.005249	7657.127441	2314.204590	18.330433
681.841309	1069.494751	7757.250488	2343.786377	19.054098
682.169373	1085.423462	7845.995605	2387.021240	19.252775
682.497314	1112.729614	7725.393066	2409.776611	19.614592
682.825134	1124.107300	7434.126465	2296.000488	18.571943
683.153076	1126.382813	7620.719238	2307.378174	18.185005
683.480896	1099.076538	7406.820313	2316.480225	19.300146
683.808655	1051.290649	7409.095703	2296.000488	19.577665
684.136414	1140.035889	7306.697266	2316.480225	19.077494
684.464050	1046.739624	7254.360352	2323.306641	20.564514
684.791626	1112.729614	7097.349609	2275.520752	19.429657
685.119263	1105.903076	6837.939941	2273.245361	20.365225
685.446838	1121.831787	6853.868652	2248.214600	19.650654
685.774292	1196.923950	6553.500000	2268.694336	20.008497
686.101685	1124.107300	6599.010254	2154.918213	18.827930
686.429077	1155.964600	6614.938965	2243.663574	19.924969
686.756348	1124.107300	6539.846680	2093.479248	17.899162
687.083679	1094.525513	6492.061035	2148.091553	19.519390
687.410950	1078.596802	6635.418457	2218.632813	20.515972
687.738159	1190.097412	6655.898438	2150.367188	17.568693
688.065308	1085.423462	6589.908203	2189.051025	20.049606
688.392395	1044.463989	6783.327637	2118.509766	18.715303
688.719421	1042.188477	6676.377930	2168.571289	19.991922
689.046448	1190.097412	6837.939941	2107.132324	16.236906
689.373413	1133.209351	6767.398926	2120.785400	17.528273
689.700317	1149.138062	6639.969727	2164.020264	18.483215
690.027100	1137.760376	6662.725098	2132.163086	17.998354
690.353943	1133.209351	6626.316406	2170.846924	18.889812
690.680725	1183.270874	6403.315430	2054.795166	16.695726
691.007446	1055.841675	6378.284668	2100.305664	19.623772
691.334106	1096.801025	6353.253906	2107.132324	19.220779
691.660645	1162.791138	6146.181641	2043.417725	17.671234
691.987244	1117.280762	6077.916016	2143.540527	20.688072
692.313721	1124.107300	5984.619629	2070.723877	19.475655
692.640259	1144.586914	6109.773438	1981.978638	16.865263
692.966675	1103.627563	6023.303711	2079.825928	19.842735
693.293030	1092.250000	5838.986328	2061.621826	20.421860
693.619324	1130.933838	5989.170898	2022.937988	18.360655
693.945618	1103.627563	5829.884277	1975.152100	18.440060
694.271851	1101.352051	5709.281738	1961.498901	18.666666
694.598083	1171.893188	5757.067871	2009.284912	18.263027
694.924194	1115.005249	5920.905273	2002.458252	18.465906
695.250244	1115.005249	5679.699707	1995.631714	19.292124
695.576294	1121.831787	5752.516602	2000.182739	18.968058
695.902283	1174.168701	5713.832520	1975.152100	17.644112
696.228210	1049.015137	5864.017090	1961.498901	18.950850
696.554138	1144.586914	5784.374023	1993.356201	18.293282
696.879944	1130.933838	5727.485840	2018.386963	19.306932
697.205750	1169.617676	5707.006348	2038.866699	19.157473
697.531433	1183.270874	5889.047852	2038.866699	18.181818
697.857178	1126.382813	5882.221191	2066.172852	19.760765
698.182739	1137.760376	6068.813965	2116.234375	19.843102
698.508423	1126.382813	6360.080566	2202.704102	20.565216
698.833984	1171.893188	6328.223145	2066.172852	17.343336
699.159485	1115.005249	6726.439453	2143.540527	18.329277
699.484924	1149.138062	7045.012207	2284.622803	19.258972
699.810303	1158.240112	7060.940918	2418.878662	21.356979
700.135681	1174.168701	7302.146484	2236.836914	17.341255
700.460999	1135.484863	7447.779785	2216.357178	17.123285
700.786255	1151.413574	7065.492188	2273.245361	18.968834
701.111450	1137.760376	6869.797363	2293.724854	20.166731
701.436646	1101.352051	6735.541504	2100.305664	17.730209
701.761719	1108.178589	6539.846680	2170.846924	19.564310
702.086792	1121.831787	6385.111328	2113.958740	18.849977
702.411865	1094.525513	6084.742676	2109.407715	20.337435
702.736816	1085.423462	5848.088379	2029.764526	19.827997
703.061646	1083.147949	5788.924805	2100.305664	21.615086
703.386536	1112.729614	5743.414551	2063.897461	20.540543
703.711365	1099.076538	5458.974609	1991.080688	20.459290
704.036194	1133.209351	5420.290527	1922.815063	18.418259
704.360901	1094.525513	5324.718750	1931.917114	19.795588
704.685547	1044.463989	5377.055664	1952.396851	20.955883
705.010132	1167.342163	5235.973145	1988.805176	20.190159
705.334717	1119.556274	5179.085449	1840.896362	17.769058
705.659302	1103.627563	5135.850586	1875.029175	19.130926
705.983765	1078.596802	5110.819824	1884.131226	19.977427
706.308228	1171.893188	5076.687012	1906.886475	18.822844
706.632568	1076.321289	5110.819824	1893.233276	20.248167
706.956909	1201.474976	4906.022949	1838.620850	17.199018
707.281189	1119.556274	4946.982422	1943.294800	21.521996
707.605408	1144.586914	5222.320313	1865.927002	17.689732
707.929626	1140.035889	5049.380859	1847.722900	18.102446
708.253784	1140.035889	5038.002930	1893.233276	19.322826
708.577820	1192.372925	5028.900879	1806.763550	16.014236
708.901855	1080.872437	4987.941406	1838.620850	19.394295
709.225830	1162.791138	5035.727539	1845.447388	17.626322
709.549805	1124.107300	5142.677246	1852.273926	18.120045
709.873718	1128.658325	4967.461914	1856.824951	18.968582
710.197510	1128.658325	5090.339844	1881.855713	19.012062
710.521362	1171.893188	5181.360840	1913.713013	18.501703
710.845093	1062.668213	5229.146973	1897.784302	20.043692
711.168701	1142.311401	5217.769043	1931.917114	19.374653
711.492432	1212.852539	5254.177734	1986.529663	19.144144
711.816040	1126.382813	5468.076660	1959.223389	19.182388
712.139587	1105.903076	5468.076660	2025.213501	21.074594
712.463074	1117.280762	5452.147949	2027.489014	20.997374
712.786499	1137.760376	5454.423340	2013.835938	20.295204
713.109924	1137.760376	5311.065430	1934.192627	19.083969
713.433350	1158.240112	5367.953613	2009.284912	20.216217
713.756592	1087.698975	5388.433105	2036.591064	22.063490
714.079834	1062.668213	5290.585938	1952.396851	21.044132
714.403015	1055.841675	5249.626465	1938.743774	21.052633
714.726196	1094.525513	5292.861328	1902.335449	19.241194
715.049255	1083.147949	5190.462891	1845.447388	18.559557
715.372375	1105.903076	5081.237793	1918.264038	20.435034
715.695435	1133.209351	5108.544434	1927.366089	19.977102
716.018311	1092.250000	5076.687012	1954.672363	21.644773
716.341248	1099.076538	5022.074219	1961.498901	21.983759
716.664063	1119.556274	5092.615723	1991.080688	21.935850
716.987000	1146.862427	5158.605469	1963.774414	20.363018
717.309692	1149.138062	5060.758301	1959.223389	20.709713
717.632385	1117.280762	4915.125000	1890.957764	20.371477
717.955078	1108.178589	4944.706543	1875.029175	19.988140
718.277649	1174.168701	4926.502441	1863.651489	18.374773
718.600220	1049.015137	4855.961426	1852.273926	21.099819
718.922791	1115.005249	4787.695801	1831.794189	19.516726
719.245300	1165.066650	4767.216309	1724.844727	15.540112
719.567688	1092.250000	4576.072266	1733.946899	18.419334
719.890015	1087.698975	4630.685059	1736.222412	18.304430
720.212341	1140.035889	4569.245605	1859.100464	20.968813
720.534607	1178.719727	4487.327148	1743.048950	17.056396
720.856873	1117.280762	4439.541016	1722.569214	18.219175
721.179016	1167.342163	4421.336914	1768.079712	18.461540
721.501160	1076.321289	4318.938477	1865.927002	24.350876
721.823242	1135.484863	4273.428223	1699.814087	17.984047
722.145264	1146.862427	4246.121582	1718.018188	18.428783
722.467224	1162.791138	4205.162598	1715.742676	18.175016
722.789185	1149.138062	4241.570801	1690.711914	17.512875
723.111023	1140.035889	4186.958496	1836.345337	22.852877
723.432861	1137.760376	4134.621094	1761.253052	20.804859
723.754578	1151.413574	4243.846191	1665.681274	16.629875
724.076294	1119.556274	4280.254395	1704.365112	18.502520
724.397949	1078.596802	4241.570801	1715.742676	20.143885
724.719666	1174.168701	4095.937500	1797.661377	21.339561
725.041260	1119.556274	4120.968262	1813.590088	23.123575
725.362732	1055.841675	4086.835449	1733.946899	22.372374
725.684265	1130.933838	4227.917480	1702.089600	18.442324
726.005676	1149.138062	4091.386475	1733.946899	19.876255
726.327087	1092.250000	4089.110840	1799.937012	23.614277
726.648438	1069.494751	4102.764160	1774.906250	23.255814
726.969666	1117.280762	4091.386475	1747.599976	21.193571
727.290894	1119.556274	4091.386475	1724.844727	20.367533
727.612061	1194.648438	4111.866211	1754.426514	19.188765
727.933228	1137.760376	4145.999023	1774.906250	21.180031
728.254395	1119.556274	4287.081055	1752.151001	19.971262
728.575378	1124.107300	4280.254395	1736.222412	19.394379
728.896301	1192.372925	4380.377441	1756.702026	17.701641
729.217285	1180.995239	4391.755371	1795.385864	19.135363
729.538147	1146.862427	4355.346680	1881.855713	22.907803
729.858948	1155.964600	4430.438965	1804.488037	19.805422
730.179810	1151.413574	4407.683594	1765.804199	18.867926
730.500549	1153.689087	4225.642090	1784.008301	20.518517
730.821228	1117.280762	4305.285156	1747.599976	19.771591
731.141846	1176.444214	4371.275391	1781.732788	18.945871
731.462402	1137.760376	4425.888184	1895.508789	23.044979
731.782898	1096.801025	4532.837402	1699.814087	17.549671
732.103455	1158.240112	4430.438965	1677.058838	15.855355
732.423889	1105.903076	4412.234863	1836.345337	22.092226
732.744263	1096.801025	4473.673828	1745.324463	19.204853
733.064636	1140.035889	4334.867188	1840.896362	21.937323
733.384888	1128.658325	4403.132813	1820.416626	21.125780
733.705200	1117.280762	4337.142578	1854.549438	22.897526
734.025330	1096.801025	4478.225098	1813.590088	21.197845
734.345520	1167.342163	4396.306152	1747.599976	17.970404
734.665527	1089.974487	4428.163574	1770.355225	20.381733
734.985596	1085.423462	4296.183105	1811.314575	22.608080
735.305542	1133.209351	4205.162598	1781.732788	21.111111
735.625549	1103.627563	4271.152344	1768.079712	20.977015
735.945435	1105.903076	4293.907715	1784.008301	21.270521
736.265259	1190.097412	4123.243652	1761.253052	19.472458
736.585083	1135.484863	4066.355713	1768.079712	21.583853
736.904785	1112.729614	3982.161377	1756.702026	22.442507
737.224426	1112.729614	4061.804688	1758.977539	21.913580
737.544128	1135.484863	4025.396240	1667.956787	18.425200
737.863708	1153.689087	3907.069336	1754.426514	21.818178
738.183289	1121.831787	4023.120850	1754.426514	21.803919
738.502808	1094.525513	4016.294189	1784.008301	23.598131
738.822205	1074.045776	3959.406250	1770.355225	24.132496
739.141541	1142.311401	4029.947266	1699.814087	19.306545
739.460938	1112.729614	4027.671875	1822.692139	24.355970
739.780212	1142.311401	4066.355713	1827.243164	23.424124
740.099426	1128.658325	4277.979004	1736.222412	19.291908
740.418640	1026.259888	4020.845215	1827.243164	26.747719
740.737793	1078.596802	4086.835449	1802.212524	24.054464
741.056885	1130.933838	4123.243652	1804.488037	22.509508
741.375977	1105.903076	4100.488281	1731.671387	20.896660
741.694946	1060.392700	4039.049316	1818.141113	25.439266
742.013855	1140.035889	4080.008789	1811.314575	22.832819
742.332703	1146.862427	3922.997803	1743.048950	21.475414
742.651550	1119.556274	3909.344727	1722.569214	21.615005
742.970398	1162.791138	3913.895752	1779.457275	22.415220
743.289124	1117.280762	3831.977051	1788.559326	24.727575
743.607788	1108.178589	3825.150391	1674.783325	20.854275
743.926453	1119.556274	3802.395264	1754.426514	23.664122
744.245056	1128.658325	3777.364502	1770.355225	24.226807
744.563599	1144.586914	3884.313965	1611.068726	17.026579
744.882141	1108.178589	3715.925537	1642.926025	20.506107
745.200500	1108.178589	3820.599365	1663.405762	20.469801
745.518860	1137.760376	3690.894775	1758.977539	24.331551
745.837219	1110.454102	3747.782715	1688.436401	21.915445
746.155518	1094.525513	3608.976074	1665.681274	22.714931
746.473755	1137.760376	3483.822266	1592.864502	19.398640
746.791992	1110.454102	3643.108887	1595.140137	19.137470
747.110107	1076.321289	3645.384277	1790.834839	27.812223
747.428162	1069.494751	3570.292236	1724.844727	26.205641
747.746216	1183.270874	3517.955078	1747.599976	24.171539
748.064148	1183.270874	3520.230713	1631.548462	19.182083
748.382080	1142.311401	3606.700439	1624.721802	19.575253
748.700073	1178.719727	3581.669678	1720.293701	22.537880
749.017822	1110.454102	3442.863037	1733.946899	26.731710
749.335632	1174.168701	3581.669678	1672.507813	20.699436
749.653320	1137.760376	3595.322754	1667.956787	21.574076
749.971008	1112.729614	3549.812500	1690.711914	23.716152
750.288696	1080.872437	3718.200928	1686.160889	22.950817
750.606262	1042.188477	3620.353516	1715.742676	26.125334
750.923828	1101.352051	3643.108887	1747.599976	25.425245
751.241272	1119.556274	3636.282227	1756.702026	25.316452
751.558716	1094.525513	3529.332764	1686.160889	24.299065
751.876038	1028.535400	3636.282227	1658.854614	24.171028
752.193481	1089.974487	3561.189941	1727.120239	25.782688
752.510681	1108.178589	3399.628174	1681.609863	25.024824
752.827942	1064.943726	3442.863037	1733.946899	28.133972
753.145081	1108.178589	3527.057129	1697.538574	24.365011
753.462219	1074.045776	3497.475586	1786.283813	29.389671
753.779297	1146.862427	3513.404053	1713.467163	23.942312
754.096375	1185.546387	3504.302002	1813.590088	27.085377
754.413330	1158.240112	3542.985840	1790.834839	26.526718
754.730286	1144.586914	3568.016602	1672.507813	21.784040
755.047119	1108.178589	3490.648926	1688.436401	24.355303
755.363892	1165.066650	3508.853027	1686.160889	22.233009
755.680725	1105.903076	3524.781738	1688.436401	24.082785
755.997498	1160.515625	3433.760986	1729.395752	25.025021
756.314148	1167.342163	3479.271240	1718.018188	23.818897
756.630737	1140.035889	3490.648926	1633.823975	21.006779
756.947327	1119.556274	3395.077148	1670.232300	24.199997
757.263855	1117.280762	3385.974854	1763.528564	28.485453
757.580261	1119.556274	3422.383301	1686.160889	24.604740
757.896729	1089.974487	3370.046387	1706.640625	27.045910
758.213074	1133.209351	3515.679688	1658.854614	22.063036
758.529419	1105.903076	3467.893799	1756.702026	27.552984
758.845642	1092.250000	3431.485352	1686.160889	25.389103
759.161865	1108.178589	3481.546875	1692.987427	24.640461
759.478149	1153.689087	3447.414063	1729.395752	25.099201
759.794189	1149.138062	3504.302002	1779.457275	26.763283
760.110229	1142.311401	3488.373291	1758.977539	26.285160
760.426270	1074.045776	3508.853027	1752.151001	27.850470
760.742249	1117.280762	3520.230713	1747.599976	26.231058
761.058105	1108.178589	3554.363525	1859.100464	30.697672
761.374023	1171.893188	3624.904541	1827.243164	26.716143
761.689819	1058.117188	3668.139648	1822.692139	29.293808
762.005554	1165.066650	3565.741211	1761.253052	24.834120
762.321289	1135.484863	3595.322754	1784.008301	26.364479
762.636902	1142.311401	3661.312988	1784.008301	25.474257
762.952515	1117.280762	3472.444824	1745.324463	26.666664
763.268127	1165.066650	3718.200928	1886.406738	28.253120
763.583618	1080.872437	3645.384277	1829.518677	29.192545
763.899048	1124.107300	3941.202148	1861.375977	26.171242
764.214478	1155.964600	4280.254395	1981.978638	26.438457
764.529785	1112.729614	4585.174316	2134.438477	29.423328
764.845093	1108.178589	4869.614746	2225.459229	29.703566
765.160400	1135.484863	4997.043457	2300.551514	30.170891
765.475586	1037.637451	4935.604492	2302.827148	32.457680
765.790771	1094.525513	4794.522461	2202.704102	29.950796
766.105835	1103.627563	4673.919922	2157.193604	29.509235
766.420837	1105.903076	4457.745117	2098.030273	29.599463
766.735840	1160.515625	4259.774902	2102.581299	30.396479
767.050842	1115.005249	4036.773926	1959.223389	28.894079
767.365662	1087.698975	3836.528076	2038.866699	34.602650
767.680542	1112.729614	3911.620361	1890.957764	27.804878
767.995300	1087.698975	3870.660889	1856.824951	27.636957
768.309998	1124.107300	3768.262451	1847.722900	27.366608
768.624817	1137.760376	3656.761963	1888.682251	29.810299
768.939392	1058.117188	3627.180176	1772.630737	27.812223
769.254028	1110.454102	3674.966064	1806.763550	27.151733
769.568481	1130.933838	3465.618164	1818.141113	29.434698
769.882935	1076.321289	3488.373291	1777.181763	29.056606
770.197388	1176.444214	3385.974854	1843.171875	30.175079
770.511841	1176.444214	3417.832275	1809.039063	28.223351
770.826172	1165.066650	3294.954102	1747.599976	27.350428
771.140442	1087.698975	3276.750000	1674.783325	26.819126
771.454651	1117.280762	3372.321777	1809.039063	30.676085
771.768860	1115.005249	3244.892578	1802.212524	32.264961
772.082886	1130.933838	3247.168213	1761.253052	29.784943
772.397034	1115.005249	3192.555664	1781.732788	32.092003
772.711060	1151.413574	3128.841064	1724.844727	28.998846
773.025024	1160.515625	3183.453613	1802.212524	31.721037
773.338928	1151.413574	3192.555664	1711.191650	27.424747
773.652771	1178.719727	3167.524902	1747.599976	28.604122
773.966614	1137.760376	3094.708252	1674.783325	27.441862
774.280457	1117.280762	3137.943115	1761.253052	31.869366
774.594116	1128.658325	3078.779541	1786.283813	33.722286
774.907776	1087.698975	3019.616211	1720.293701	32.744400
775.221375	1074.045776	3094.708252	1633.823975	27.702707
775.534912	1149.138062	2999.136475	1738.497925	31.857317
775.848450	1074.045776	3090.157227	1758.977539	33.972912
776.161926	1119.556274	3067.402100	1754.426514	32.593452
776.475342	1146.862427	2971.830078	1702.089600	30.423946
776.788696	1135.484863	3126.565674	1763.528564	31.542854
777.101990	1169.617676	2930.870850	1695.262939	29.844957
777.415283	1105.903076	2924.044189	1722.569214	33.917397
777.728516	1144.586914	2899.013428	1822.692139	38.651104
778.041626	1151.413574	2937.697266	1815.865601	37.197453
778.354736	1133.209351	2935.421875	1772.630737	35.479801
778.667725	1151.413574	3005.962891	1686.160889	28.834354
778.980774	1155.964600	2935.421875	1827.243164	37.723782
779.293640	1126.382813	2880.809326	1797.661377	38.261993
779.606567	1069.494751	2755.655762	1695.262939	37.112007
779.919434	1160.515625	2844.401123	1652.028076	29.189184
780.232239	1171.893188	2878.533936	1745.324463	33.599998
780.544983	1162.791138	2921.768799	1763.528564	34.152645
780.857666	1201.474976	3008.238525	1743.048950	29.974812
781.170227	1169.617676	2792.063965	1747.599976	35.624126
781.482849	1140.035889	2855.778564	1613.344238	27.586208
781.795410	1117.280762	2819.370361	1695.262939	33.957211
782.107910	1126.382813	2889.911377	1745.324463	35.096775
782.420288	1135.484863	2805.717041	1788.559326	39.100819
782.732666	1108.178589	2776.135498	1706.640625	35.879948
783.044983	1196.923950	2712.420898	1636.099487	28.978979
783.357300	1153.689087	2716.971924	1836.345337	43.668121
783.669495	1144.586914	2767.033203	1665.681274	32.117821
783.981689	1160.515625	2785.237549	1733.946899	35.294117
784.293762	1140.035889	2735.176025	1686.160889	34.236805
784.605835	1126.382813	2732.900391	1654.303589	32.861191
784.917908	1121.831787	2632.777588	1690.711914	37.650597
785.229858	1151.413574	2671.461426	1747.599976	39.221554
785.541748	1092.250000	2696.492188	1690.711914	37.304962
785.853577	1242.434326	2591.818115	1656.579102	30.691401
786.165405	1105.903076	2628.226563	1613.344238	33.333332
786.477173	1137.760376	2707.869873	1611.068726	30.144926
786.788879	1049.015137	2641.879639	1631.548462	36.571430
787.100525	1103.627563	2630.501953	1708.916138	39.642330
787.412109	1035.361938	2621.399902	1611.068726	36.298424
787.723694	1064.943726	2600.920166	1729.395752	43.259258
788.035156	998.953613	2605.471436	1626.997314	39.093479
788.346558	1023.984375	2610.022461	1777.181763	47.489239
788.658081	1092.250000	2632.777588	1683.885376	38.404724
788.969360	1099.076538	2653.257324	1756.702026	42.313320
789.280640	1119.556274	2773.859863	1770.355225	39.339752
789.591919	1176.444214	2769.308838	1886.406738	44.571430
789.903076	1158.240112	2848.952148	1786.283813	37.146698
790.214172	1121.831787	2924.044189	1863.651489	41.161613
790.525269	1117.280762	2798.890625	1768.079712	38.700947
790.836365	1124.107300	2744.278076	1879.580200	46.629215
791.147339	1126.382813	2728.349365	1861.375977	45.880680
791.458191	1112.729614	2737.451416	1752.151001	39.355747
791.769104	1103.627563	2657.808350	1820.416626	46.120056
792.079895	1149.138062	2703.318604	1672.507813	33.674965
792.390686	1124.107300	2569.062988	1788.559326	45.984249
792.701416	1169.617676	2541.756836	1758.977539	42.951900
793.012085	1151.413574	2487.144287	1624.721802	35.434406
793.322693	1099.076538	2591.818115	1738.497925	42.835369
793.633240	1185.546387	2544.032227	1711.191650	38.693466
793.943787	1094.525513	2448.460449	1715.742676	45.882351
794.254272	1101.352051	2607.746826	1758.977539	43.655586
794.564636	1094.525513	2471.215576	1733.946899	46.446285
794.875000	1183.270874	2462.113525	1738.497925	43.416370
795.185303	1080.872437	2484.868652	1686.160889	43.111828
795.495544	1021.708862	2496.246338	1756.702026	49.845676
795.805786	1149.138062	2430.256104	1747.599976	46.714035
796.115906	1165.066650	2475.766602	1677.058838	39.062500
796.426025	1108.178589	2491.695313	1681.609863	41.447369
796.736023	1140.035889	2525.828125	1718.018188	41.707718
797.045959	1110.454102	2562.236328	1749.875488	44.043892
797.355896	1142.311401	2598.644775	1752.151001	41.875000
797.665833	1103.627563	2660.083740	1674.783325	36.695911
797.975708	1183.270874	2562.236328	1872.753662	50.000004
798.285461	1083.147949	2641.879639	1909.161987	52.992702
798.595154	1117.280762	2610.022461	1672.507813	37.195118
798.904846	1128.658325	2423.429688	1781.732788	50.439365
799.214478	1096.801025	2473.491211	1761.253052	48.264458
799.524109	1071.770264	2571.338623	1777.181763	47.040970
799.833557	1121.831787	2587.267090	1772.630737	44.409943
800.143005	1089.974487	2462.113525	1774.906250	49.917080
800.452393	1069.494751	2412.052002	1704.365112	47.288139
800.761780	1162.791138	2384.745850	1670.232300	41.527004
801.071106	1058.117188	2405.225586	1788.559326	54.222965
801.380371	1183.270874	2346.062012	1797.661377	52.837563
801.689575	1078.596802	2368.817139	1747.599976	51.851856
801.998718	1196.923950	2414.327637	1740.773438	44.672897
802.307800	1117.280762	2407.500977	1720.293701	46.737209
802.616882	1087.698975	2437.082764	1745.324463	48.735245
802.925903	1108.178589	2405.225586	1770.355225	51.052631
803.234863	1023.984375	2409.776611	1763.528564	53.366165
803.543701	1112.729614	2336.959961	1768.079712	53.531601
803.852539	1069.494751	2425.705078	1731.671387	48.825512
804.161316	1124.107300	2359.715088	1695.262939	46.224670
804.470032	1089.974487	2380.194824	1686.160889	46.208107
804.778809	1115.005249	2280.071777	1663.405762	47.070316
805.087341	1187.821899	2289.173828	1665.681274	43.388435
805.395935	1096.801025	2257.316650	1702.089600	52.156864
805.704468	1110.454102	2311.929199	1699.814087	49.053032
806.012939	1092.250000	2348.337402	1733.946899	51.086964
806.321350	1105.903076	2311.929199	1772.630737	55.283020
806.629761	1185.546387	2418.878662	1727.120239	43.911430
806.938049	1089.974487	2325.582275	1715.742676	50.644566
807.246277	1160.515625	2368.817139	1788.559326	51.977398
807.554504	1039.912964	2302.827148	1799.937012	60.180180
807.862671	1171.893188	2296.000488	1713.467163	48.178139
808.170715	1194.648438	2357.439453	1720.293701	45.205479
808.478821	1176.444214	2418.878662	1727.120239	44.322342
808.786804	1210.577026	2236.836914	1818.141113	59.201778
809.094727	1128.658325	2286.898438	1731.671387	52.062870
809.402649	1146.862427	2298.276123	1788.559326	55.731220
809.710510	1133.209351	2239.112549	1745.324463	55.349792
810.018311	1253.812012	2230.010498	1672.507813	42.890438
810.326050	1153.689087	2211.806152	1788.559326	60.000000
810.633667	1137.760376	2293.724854	1695.262939	48.228348
810.941345	1087.698975	2193.602051	1729.395752	58.024685
811.248901	1149.138062	2257.316650	1729.395752	52.361389
811.556396	1153.689087	2179.948975	1713.467163	54.545452
811.863892	1103.627563	2216.357178	1790.834839	61.758694
812.171326	1039.912964	2273.245361	1733.946899	56.273064
812.478699	1051.290649	2161.744873	1727.120239	60.860645
812.786011	1089.974487	2152.642578	1690.711914	56.531048
813.093262	1140.035889	2125.336426	1727.120239	59.584293
813.400391	1142.311401	2011.560425	1749.875488	69.895287
813.707642	1064.943726	2164.020264	1654.303589	53.623188
814.014709	1103.627563	2150.367188	1683.885376	55.434780
814.321716	1146.862427	2136.714111	1736.222412	59.540230
814.628723	1137.760376	2239.112549	1615.619751	43.388428
814.935669	1046.739624	2141.265137	1718.018188	61.330555
815.242554	1210.577026	2118.509766	1733.946899	57.644123
815.549438	1108.178589	2225.459229	1697.538574	52.749504
815.856201	1092.250000	2104.856689	1758.977539	65.842697
816.162964	1121.831787	2091.203613	1708.916138	60.563381
816.469604	1128.658325	2207.255127	1765.804199	59.071739
816.776184	1208.301514	2109.407715	1758.977539	61.111115
817.082825	1155.964600	2159.469238	1786.283813	62.811790
817.389343	1130.933838	2182.224365	1749.875488	58.874462
817.695801	1060.392700	2159.469238	1752.151001	62.939957
818.002197	1044.463989	2173.122314	1772.630737	64.516136
818.308533	1169.617676	2186.775391	1697.538574	51.901577
818.614868	1119.556274	2214.081787	1768.079712	59.251560
818.921143	1128.658325	2216.357178	1829.518677	64.435150
819.227356	1135.484863	2195.877686	1788.559326	61.587975
819.533447	1115.005249	2207.255127	1781.732788	61.041668
819.839539	1087.698975	2245.938965	1813.590088	62.671909
820.145569	1126.382813	2291.449463	1811.314575	58.789063
820.451538	1137.760376	2341.510986	1886.406738	62.192814
820.757568	1144.586914	2421.154053	1870.478149	56.862755
821.063416	1140.035889	2566.787354	2052.519775	63.955349
821.369263	1115.005249	2678.288086	2098.030273	62.882095
821.675049	1165.066650	2819.370361	2132.163086	58.459423
821.980713	1169.617676	2842.125488	2152.642578	58.775505
822.286438	1055.841675	3067.402100	2348.337402	64.253387
822.592102	1094.525513	3269.923340	2434.807373	61.610882
822.897583	1058.117188	4002.641113	2912.666504	62.982994
823.203125	1037.637451	6116.600098	4216.540039	62.589600
823.508545	1115.005249	8312.477539	5811.680176	65.254501
823.813965	1099.076538	10292.180664	6847.041992	62.524746
824.119263	1119.556274	10968.010742	7320.350586	62.962109
824.424622	1101.352051	9909.893555	6667.275879	63.187805
824.729858	1119.556274	8426.253906	5713.832520	62.877602
825.035095	1153.689087	7331.728027	4937.880371	61.252308
825.340149	1140.035889	6259.957520	4369.000000	63.066669
825.645264	1099.076538	5433.943848	3916.171387	64.986877
825.950256	1126.382813	5003.870117	3631.731201	64.612679
826.255310	1135.484863	4612.480469	3381.423828	64.594246
826.560242	1080.872437	4148.274414	3156.147461	67.655785
826.865112	1101.352051	3929.824463	2951.350586	65.406281
827.169922	1112.729614	3806.946289	2978.656738	69.256752
827.474670	1162.791138	3690.894775	2892.187012	68.406845
827.779419	1087.698975	3866.109863	2855.778564	63.636360
828.084045	1176.444214	4257.499512	3253.994629	67.429832
828.388672	1130.933838	4771.767090	3588.496338	67.500000
828.693176	1165.066650	5215.493652	3825.150391	65.674156
828.997681	1178.719727	5192.738281	3882.038574	67.346947
829.302124	1146.862427	4774.042480	3488.373291	64.554573
829.606567	1126.382813	4041.324951	3142.494141	69.164711
829.910828	1142.311401	3647.659912	2803.441650	66.303360
830.215149	1124.107300	3463.342773	2641.879639	64.883270
830.519348	1217.403687	3160.698486	2475.766602	64.754089
830.823547	1094.525513	2885.360352	2323.306641	68.614990
831.127686	1087.698975	2844.401123	2316.480225	69.948181
831.431763	1108.178589	2687.390137	2193.602051	68.731987
831.735779	1108.178589	2544.032227	2075.274902	67.353401
832.039734	1115.005249	2509.899414	2072.999512	68.678635
832.343628	1117.280762	2400.674561	1959.223389	65.602829
832.647461	1153.689087	2282.347412	1902.335449	66.330643
832.951233	1196.923950	2350.613037	1872.753662	58.579884
833.255127	1117.280762	2255.041016	1961.498901	74.200005
833.558777	1149.138062	2311.929199	1941.019287	68.101761
833.862366	1203.750488	2291.449463	2011.560425	74.267784
834.165955	1162.791138	2423.429688	2100.305664	74.368225
834.469482	1178.719727	2785.237549	2291.449463	69.263451
834.773010	1160.515625	3112.912354	2480.317627	67.599068
835.076416	1110.454102	3465.618164	2796.614990	71.594200
835.379822	1126.382813	3697.721191	2980.932129	72.123894
835.683105	1180.995239	3620.353516	3028.718262	75.746269
835.986389	1037.637451	3502.026611	2764.757813	70.083099
836.289612	1067.219238	3228.964111	2514.450439	66.947365
836.592773	1105.903076	3042.371338	2368.817139	65.217392
836.895874	1108.178589	2801.166016	2348.337402	73.252686
837.198914	1149.138062	2612.297852	2236.836914	74.339035
837.501892	1085.423462	2528.103516	2052.519775	67.034706
837.804871	1135.484863	2332.408936	2173.122314	86.692001
838.107666	1117.280762	2227.734863	1986.529663	78.278687
838.410583	1067.219238	2259.592041	1972.876587	75.954208
838.713379	1133.209351	2154.918213	1904.610962	75.501122
839.016052	1078.596802	2038.866699	1922.815063	87.914688
839.318787	1126.382813	2032.040039	1756.702026	69.597992
839.621338	1149.138062	1950.121338	1770.355225	77.556824
839.923889	1087.698975	1913.713013	1743.048950	79.338844
840.226440	1085.423462	1938.743774	1677.058838	69.333328
840.528931	1117.280762	1988.805176	1722.569214	69.451691
840.831299	1160.515625	2002.458252	1736.222412	68.378387
841.133606	1180.995239	2082.101563	1788.559326	67.424240
841.435913	1067.219238	2209.530762	1868.202637	70.119522
841.738220	1133.209351	2216.357178	1970.601074	77.310936
842.040405	1067.219238	2259.592041	1863.651489	66.793900
842.342529	1142.311401	2041.142212	1831.794189	76.708855
842.644592	1128.658325	2036.591064	1818.141113	75.939850
842.946594	1133.209351	1909.161987	1824.967651	89.149551
843.248596	1080.872437	1895.508789	1731.671387	79.888275
843.550598	1174.168701	1884.131226	1613.344238	61.858974
843.852478	1153.689087	1829.518677	1686.160889	78.787880
844.154236	1108.178589	1890.957764	1720.293701	78.197678
844.455994	1153.689087	1829.518677	1551.905151	58.922554
844.757690	1165.066650	1754.426514	1583.762451	71.042473
845.059326	1105.903076	1770.355225	1535.976563	64.726028
845.360962	1133.209351	1781.732788	1499.568237	56.491234
845.662476	1190.097412	1608.793213	1501.843750	74.456520
845.963989	1110.454102	1747.599976	1572.384888	72.500008
846.265381	1140.035889	1677.058838	1549.629639	76.271179
846.566772	1137.760376	1642.926025	1485.915039	68.918907
846.868042	1117.280762	1665.681274	1520.047852	73.443970
847.169373	1096.801025	1615.619751	1504.119263	78.508774
847.470581	1126.382813	1581.486938	1563.282837	96.000015
847.771729	1117.280762	1706.640625	1572.384888	77.220078
848.072815	1060.392700	1690.711914	1531.425537	74.729256
848.373901	1117.280762	1640.650513	1476.812988	68.695648
848.674866	1151.413574	1624.721802	1476.812988	68.750000
848.975891	1071.770264	1588.313477	1465.435425	76.211464
849.276794	1062.668213	1586.037964	1540.527588	91.304352
849.577637	1101.352051	1670.232300	1567.833862	82.000000
849.878357	1089.974487	1633.823975	1449.506714	66.108772
850.179077	1014.882263	1586.037964	1451.782227	76.494019
850.479736	1167.342163	1547.354126	1492.741699	85.628761
850.780396	1112.729614	1581.486938	1554.180664	94.174751
851.080994	1135.484863	1601.966675	1515.496826	81.463402
851.381470	1101.352051	1626.997314	1463.159912	68.831184
851.681946	1074.045776	1615.619751	1403.996338	60.924374
851.982361	1096.801025	1636.099487	1508.670288	76.371300
852.282715	1135.484863	1579.211426	1554.180664	94.358971
852.583008	1146.862427	1565.558350	1424.476074	66.304359
852.883240	1112.729614	1622.446289	1383.516602	53.125000
853.183411	1108.178589	1579.211426	1444.955688	71.497581
853.483521	1133.209351	1556.456177	1513.221313	89.784950
853.783630	1101.352051	1642.926025	1465.435425	67.226898
854.083679	1135.484863	1656.579102	1506.394775	71.179047
854.383667	1101.352051	1490.466064	1508.670288	104.678375
854.683533	1178.719727	1531.425537	1458.608887	79.354851
854.983337	1133.209351	1547.354126	1451.782227	76.923073
855.283203	1135.484863	1524.598877	1531.425537	101.754410
855.582886	1080.872437	1570.109375	1513.221313	88.372086
855.882629	1130.933838	1586.037964	1531.425537	88.000015
856.182312	1121.831787	1454.057739	1554.180664	130.136993
856.481873	1121.831787	1531.425537	1454.057739	81.111092
856.781372	1089.974487	1615.619751	1490.466064	76.190468
857.080872	1153.689087	1556.456177	1442.680176	71.751419
857.380310	1162.791138	1497.292725	1469.986450	91.836731
857.679688	1074.045776	1535.976563	1451.782227	81.773384
857.979004	1137.760376	1579.211426	1454.057739	71.649475
858.278259	1096.801025	1531.425537	1504.119263	93.717270
858.577454	1171.893188	1524.598877	1356.210449	52.258091
858.876648	1128.658325	1490.466064	1369.863525	66.666679
859.175720	1103.627563	1504.119263	1433.578125	82.386368
859.474792	1019.433350	1547.354126	1542.803101	99.137932
859.773743	1058.117188	1638.375000	1515.496826	78.823524
860.072693	1158.240112	1592.864502	1394.894287	54.450275
860.371521	1251.536499	1535.976563	1410.822876	55.999981
860.670349	1187.821899	1529.150024	1458.608887	79.333336
860.969116	1137.760376	1485.915039	1431.302612	84.313744
861.267883	1183.270874	1520.047852	1451.782227	79.729721
861.566589	1071.770264	1497.292725	1429.027100	83.957222
861.865112	1076.321289	1522.323364	1463.159912	86.734711
862.163635	1126.382813	1545.078613	1476.812988	83.695648
862.462158	1137.760376	1504.119263	1460.884399	88.198769
862.760620	1135.484863	1542.803101	1406.271851	66.480446
863.059021	1053.566162	1558.731689	1401.720825	68.918930
863.357361	1153.689087	1533.701050	1490.466064	88.622734
863.655640	1180.995239	1474.537476	1417.649414	80.620148
863.953857	1108.178589	1561.007324	1449.506714	75.376869
864.251953	1196.923950	1558.731689	1438.129150	66.666679
864.550110	1144.586914	1551.905151	1413.098389	65.921791
864.848206	1058.117188	1608.793213	1440.404663	69.421486
865.146179	1146.862427	1538.252075	1479.088501	84.883713
865.444092	1064.943726	1551.905151	1531.425537	95.794411
865.741943	1092.250000	1472.261963	1456.333252	95.808365
866.039795	1112.729614	1460.884399	1485.915039	107.189514
866.337646	1153.689087	1522.323364	1433.578125	75.925941
866.635376	1035.361938	1438.129150	1440.404663	100.564972
866.933044	1199.199463	1508.670288	1444.955688	79.411758
867.230652	1035.361938	1533.701050	1501.843750	93.607307
867.528198	1151.413574	1488.190552	1492.741699	101.351379
867.825745	1165.066650	1547.354126	1444.955688	73.214287
868.123230	1076.321289	1551.905151	1433.578125	75.119629
868.420593	1183.270874	1551.905151	1431.302612	67.283958
868.717896	1212.852539	1504.119263	1429.027100	74.218765
869.015198	1142.311401	1454.057739	1369.863525	72.992714
869.312439	1135.484863	1483.639526	1410.822876	79.084969
869.609619	1119.556274	1454.057739	1451.782227	99.319733
869.906738	1087.698975	1474.537476	1435.853638	90.000000
870.203796	1069.494751	1545.078613	1408.547363	71.291870
870.500854	1142.311401	1574.660400	1426.751587	65.789490
870.797791	1112.729614	1524.598877	1472.261963	87.292831
871.094666	1103.627563	1604.242188	1419.924927	63.181805
871.391602	1069.494751	1563.282837	1481.364014	83.410126
871.688293	1110.454102	1542.803101	1392.618774	65.263176
871.985107	1062.668213	1554.180664	1435.853638	75.925934
872.281738	1053.566162	1520.047852	1517.772339	99.512199
872.578369	1121.831787	1549.629639	1449.506714	76.595741
872.874939	1119.556274	1556.456177	1529.150024	93.750023
873.171509	1094.525513	1467.710938	1542.803101	120.121941
873.467957	1049.015137	1426.751587	1460.884399	109.036148
873.764343	1171.893188	1490.466064	1508.670288	105.714302
874.060669	1069.494751	1488.190552	1476.812988	97.282616
874.356995	1085.423462	1595.140137	1440.404663	69.642845
874.653198	1078.596802	1510.945801	1467.710938	90.000008
874.949463	1124.107300	1472.261963	1442.680176	91.503265
875.245544	1133.209351	1579.211426	1495.017212	81.122459
875.541626	1174.168701	1529.150024	1465.435425	82.051285
875.837646	1158.240112	1574.660400	1454.057739	71.038239
876.133606	1178.719727	1522.323364	1510.945801	96.688751
876.429565	1142.311401	1490.466064	1422.200562	80.392189
876.725403	1176.444214	1554.180664	1526.874512	92.771111
877.021179	1105.903076	1558.731689	1488.190552	84.422112
877.316956	1128.658325	1465.435425	1517.772339	115.540520
877.612610	1119.556274	1574.660400	1483.639526	79.999992
877.908203	1115.005249	1499.568237	1517.772339	104.733711
878.203857	1074.045776	1524.598877	1497.292725	93.939415
878.499390	1078.596802	1517.772339	1463.159912	87.564781
878.794800	1121.831787	1481.364014	1479.088501	99.367088
879.090271	1094.525513	1495.017212	1510.945801	103.977257
879.385559	1149.138062	1567.833862	1469.986450	76.630432
879.680847	1130.933838	1611.068726	1581.486938	93.838860
879.976196	1124.107300	1570.109375	1574.660400	101.020401
880.271301	1140.035889	1642.926025	1554.180664	82.352936
880.566467	1208.301514	1615.619751	1667.956787	112.849174
880.861572	1126.382813	1702.089600	1702.089600	100.000000
881.156555	1119.556274	1822.692139	1797.661377	96.440125
881.451477	1069.494751	1906.886475	1811.314575	88.586952
881.746460	1112.729614	2282.347412	2195.877686	92.607010
882.041321	1039.912964	2848.952148	2603.195801	86.415092
882.336121	1110.454102	3599.874023	3508.853027	96.343689
882.630798	1053.566162	4205.162598	4145.999023	98.122742
882.925537	1078.596802	4642.062500	4334.867188	91.379311
883.220215	1130.933838	4867.338867	4478.225098	89.585876
883.514771	1055.841675	4448.643066	4143.723145	91.012741
883.809326	1112.729614	4105.039551	3986.712402	96.045624
884.103760	1169.617676	3834.252441	3547.536865	89.239967
884.398132	1165.066650	3590.771729	3392.801514	91.838654
884.692505	1176.444214	3363.219727	3128.841064	89.282005
884.986816	1110.454102	3101.534912	2976.381104	93.714279
885.281067	1153.689087	2978.656738	2851.227539	93.017456
885.575256	1160.515625	2755.655762	2566.787354	88.159760
885.869385	1196.923950	2480.317627	2368.817139	91.312057
886.163452	1092.250000	2346.062012	2261.867676	93.284935
886.457458	1162.791138	2150.367188	2136.714111	98.617516
886.751465	1194.648438	2098.030273	2088.927979	98.992416
887.045410	1112.729614	2066.172852	1893.233276	81.861580
887.339233	1162.791138	1915.988525	1872.753662	94.259827
887.632996	1112.729614	1793.110352	1708.916138	87.625427
887.926758	1153.689087	1838.620850	1749.875488	87.043182
888.220398	1187.821899	1774.906250	1652.028076	79.069756
888.514099	1121.831787	1686.160889	1583.762451	81.854836
888.807678	1037.637451	1611.068726	1631.548462	103.571434
889.101196	1135.484863	1649.752563	1595.140137	89.380547
889.394653	1158.240112	1597.415649	1631.548462	107.772018
889.688049	1067.219238	1476.812988	1583.762451	126.111107
889.981384	1105.903076	1611.068726	1517.772339	81.531525
890.274719	1099.076538	1538.252075	1592.864502	112.435219
890.567932	1140.035889	1604.242188	1613.344238	101.960777
>>>>>End Processed Spectral Data<<<<<
