Jaz Data File
++++++++++++++++++++++++++++++++++++
Date: Sun Sep 29 07:28:36 2024
User: jaz
Dark Spectrum Present: Yes
Reference Spectrum Present: Yes
Processed Spectrum Present: Yes
Spectrometers: JAZA3692
Integration Time (usec): 40000 (JAZA3692)
Spectra Averaged: 1 (JAZA3692)
Boxcar Smoothing: 0 (JAZA3692)
Correct for Electrical Dark: No (JAZA3692)
Strobe/Lamp Enabled: Yes (JAZA3692)
Correct for Detector Non-linearity: No (JAZA3692)
Correct for Stray Light: No (JAZA3692)
Number of Pixels in Processed Spectrum: 2048
>>>>>Begin Processed Spectral Data<<<<<
W	D	R	S	P
190.244385	0.000000	0.000000	0.000000	0.000000
190.627136	0.000000	0.000000	0.000000	0.000000
191.009842	1105.903076	1067.219238	1062.668213	111.764671
191.392532	1112.729614	1064.943726	1130.933838	-38.095398
191.775177	1137.760376	1119.556274	1142.311401	-25.000000
192.157791	1144.586914	1085.423462	1117.280762	46.153751
192.540390	1196.923950	1151.413574	1130.933838	145.000153
192.922943	1178.719727	1074.045776	1171.893188	6.521716
193.305481	1183.270874	1162.791138	1160.515625	111.111046
193.687958	1105.903076	1190.097412	1117.280762	13.513599
194.070419	1112.729614	1087.698975	1171.893188	-236.364609
194.452866	1221.954712	1178.719727	1199.199463	52.631565
194.835251	1187.821899	1249.260864	1151.413574	-59.259338
195.217621	1199.199463	1210.577026	1053.566162	-1280.004272
195.599960	1142.311401	1135.484863	1126.382813	233.333328
195.982254	1078.596802	1137.760376	1115.005249	61.538620
196.364517	1124.107300	1146.862427	1062.668213	-270.001068
196.746750	1167.342163	1128.658325	1171.893188	-11.764668
197.128952	1178.719727	1169.617676	1160.515625	200.000000
197.511139	1167.342163	1233.332275	1174.168701	10.344790
197.893280	1165.066650	1092.250000	1160.515625	6.249979
198.275391	1087.698975	1187.821899	1196.923950	109.090874
198.657471	1119.556274	1206.026001	1174.168701	63.157856
199.039520	1130.933838	1256.087524	1130.933838	0.000000
199.421539	1171.893188	1215.128052	1108.178589	-147.368576
199.803513	1185.546387	1110.454102	1099.076538	115.151443
200.185471	1099.076538	1144.586914	1119.556274	45.000149
200.567383	1208.301514	1162.791138	1099.076538	240.000168
200.949265	1167.342163	1221.954712	1124.107300	-79.166534
201.331131	1124.107300	1137.760376	1119.556274	-33.333332
201.712967	1140.035889	1101.352051	1142.311401	-5.882334
202.094742	1133.209351	1180.995239	1135.484863	4.761893
202.476517	1083.147949	1199.199463	1126.382813	37.254890
202.858231	1128.658325	1153.689087	1140.035889	45.454323
203.239944	1103.627563	1155.964600	1124.107300	39.130486
203.621582	1121.831787	1130.933838	1076.321289	-500.002686
204.003235	1137.760376	1112.729614	1126.382813	45.454323
204.384827	1144.586914	1185.546387	1108.178589	-88.888657
204.766388	1108.178589	1215.128052	1130.933838	21.276636
205.147934	1078.596802	1153.689087	1074.045776	-6.060576
205.529449	1146.862427	1133.209351	1110.454102	266.667572
205.910904	1119.556274	1206.026001	1085.423462	-39.473713
206.292343	1115.005249	1092.250000	1092.250000	100.000000
206.673767	1140.035889	1158.240112	1187.821899	262.499573
207.055115	1233.332275	1094.525513	994.402588	172.131165
207.436462	1076.321289	1174.168701	1110.454102	34.883717
207.817780	1151.413574	1096.801025	1121.831787	54.166649
208.199051	1126.382813	1187.821899	1174.168701	77.777664
208.580307	1044.463989	1108.178589	1119.556274	117.857269
208.961517	1092.250000	1126.382813	1165.066650	213.333282
209.342712	1069.494751	1121.831787	1060.392700	-17.391224
209.723846	1092.250000	1149.138062	1060.392700	-55.999973
210.104965	1187.821899	1140.035889	1060.392700	266.666321
210.486069	1128.658325	1190.097412	1062.668213	-107.407379
210.867111	1078.596802	1128.658325	1089.974487	22.727406
211.248123	1176.444214	1130.933838	1026.259888	330.000183
211.629120	1130.933838	1169.617676	1078.596802	-135.294327
212.010071	1089.974487	1142.311401	1089.974487	0.000000
212.390991	1126.382813	1128.658325	1149.138062	1000.005371
212.771881	1187.821899	1128.658325	1119.556274	115.384552
213.152756	1160.515625	1171.893188	1130.933838	-260.001068
213.533569	1115.005249	1146.862427	1242.434326	400.001160
213.914368	1124.107300	1196.923950	1126.382813	3.124990
214.295135	1199.199463	1201.474976	1169.617676	-1300.005371
214.675858	1140.035889	1112.729614	1119.556274	74.999664
215.056549	1130.933838	1101.352051	1115.005249	53.845932
215.437225	1153.689087	1130.933838	1155.964600	-9.999947
215.817841	1155.964600	1196.923950	1121.831787	-83.333382
216.198441	1115.005249	1176.444214	1078.596802	-59.259541
216.579025	1140.035889	1160.515625	1110.454102	-144.444183
216.959549	1128.658325	1233.332275	1183.270874	52.173965
217.340057	1067.219238	1144.586914	1183.270874	150.000153
217.720535	1165.066650	1160.515625	1096.801025	1500.005371
218.100967	1153.689087	1160.515625	1128.658325	-366.668457
218.481369	1151.413574	1128.658325	1076.321289	329.999847
218.861740	1119.556274	1117.280762	1144.586914	-1100.000000
219.242065	1119.556274	1146.862427	1078.596802	-150.000900
219.622391	1153.689087	1115.005249	1085.423462	176.470657
220.002670	1083.147949	1142.311401	1103.627563	34.615314
220.382919	1146.862427	1130.933838	1078.596802	428.572968
220.763123	1128.658325	1162.791138	1124.107300	-13.333285
221.143295	1128.658325	1190.097412	1044.463989	-137.037094
221.523453	1169.617676	1180.995239	1103.627563	-580.002136
221.903549	1121.831787	1194.648438	1108.178589	-18.750105
222.283630	1142.311401	1212.852539	1178.719727	51.612896
222.663696	1160.515625	1126.382813	1165.066650	-13.333285
223.043701	1115.005249	1196.923950	1119.556274	5.555539
223.423676	1058.117188	1142.311401	1076.321289	21.621559
223.803635	1140.035889	1149.138062	1099.076538	-449.995300
224.183548	1080.872437	1192.372925	1028.535400	-46.938839
224.563431	1033.086426	1192.372925	1076.321289	27.142830
224.943283	1115.005249	1174.168701	1105.903076	-15.384790
225.323105	1110.454102	1144.586914	1083.147949	-79.999710
225.702881	1133.209351	1199.199463	1037.637451	-144.827606
226.082642	1085.423462	1149.138062	1078.596802	-10.714437
226.462357	1146.862427	1244.709839	1219.679199	74.418701
226.842041	1087.698975	1165.066650	1160.515625	94.117668
227.221695	1124.107300	1178.719727	1178.719727	100.000000
227.601318	1137.760376	1171.893188	1087.698975	-146.666504
227.980911	1135.484863	1171.893188	1171.893188	100.000000
228.360474	1058.117188	1206.026001	1158.240112	67.692329
228.739990	1171.893188	1290.220337	1094.525513	-65.384552
229.119476	1105.903076	1231.056763	1155.964600	40.000038
229.498932	1074.045776	1237.883301	1199.199463	76.388901
229.878372	1124.107300	1324.353149	1144.586914	10.227236
230.257736	1167.342163	1454.057739	1210.577026	15.079356
230.637115	1126.382813	1383.516602	1140.035889	5.309717
231.016449	1067.219238	1367.588013	1221.954712	51.515167
231.395737	1155.964600	1381.241089	1274.291626	52.525246
231.774994	1144.586914	1306.148926	1174.168701	18.309866
232.154221	1128.658325	1253.812012	1178.719727	39.999943
232.533417	1087.698975	1292.495850	1115.005249	13.333345
232.912582	1071.770264	1292.495850	1221.954712	68.041252
233.291702	1117.280762	1278.842651	1080.872437	-22.535219
233.670792	1149.138062	1272.016113	1153.689087	3.703693
234.049866	1151.413574	1328.904175	1140.035889	-6.410303
234.428894	1117.280762	1310.699951	1146.862427	15.294069
234.807892	1155.964600	1315.250977	1162.791138	4.285701
235.186874	1178.719727	1256.087524	1146.862427	-41.176434
235.565781	1128.658325	1269.740601	1178.719727	35.483833
235.944687	1087.698975	1328.904175	1183.270874	39.622654
236.323547	1133.209351	1317.526489	1274.291626	76.543221
236.702377	1110.454102	1272.016113	1171.893188	38.028175
237.081177	1115.005249	1278.842651	1115.005249	0.000000
237.459946	1130.933838	1297.046875	1196.923950	39.726028
237.838669	1167.342163	1340.281738	1215.128052	27.631552
238.217361	1130.933838	1353.934937	1146.862427	7.142830
238.596039	1110.454102	1381.241089	1167.342163	21.008417
238.974670	1087.698975	1326.628662	1087.698975	0.000000
239.353271	1030.810913	1406.271851	1133.209351	27.272728
239.731842	1115.005249	1381.241089	1130.933838	5.982887
240.110367	1146.862427	1401.720825	1146.862427	0.000000
240.488876	1140.035889	1322.077637	1144.586914	2.499990
240.867340	1089.974487	1399.445313	1176.444214	27.941156
241.245789	1151.413574	1392.618774	1115.005249	-15.094337
241.624176	1124.107300	1460.884399	1210.577026	25.675655
242.002548	1130.933838	1526.874512	1206.026001	18.965509
242.380890	1169.617676	1479.088501	1246.985352	24.999990
242.759186	1128.658325	1633.823975	1224.230225	18.918922
243.137451	1144.586914	1692.987427	1215.128052	12.863070
243.515686	1146.862427	1802.212524	1265.189575	18.055563
243.893890	1142.311401	1745.324463	1297.046875	25.660385
244.272049	1055.841675	1875.029175	1294.771362	29.166666
244.650192	1140.035889	1761.253052	1292.495850	24.542135
245.028290	1135.484863	1672.507813	1262.914063	23.728819
245.406357	1135.484863	1663.405762	1258.363037	23.275869
245.784393	1144.586914	1617.895264	1278.842651	28.365385
246.162384	1149.138062	1617.895264	1246.985352	20.873768
246.540359	1140.035889	1647.477051	1260.638550	23.766827
246.918289	1128.658325	1704.365112	1299.322388	29.644268
247.296204	1146.862427	1843.171875	1399.445313	36.274517
247.674057	1201.474976	2100.305664	1394.894287	21.518993
248.051895	1162.791138	2296.000488	1333.455200	15.060242
248.429703	1146.862427	2355.164063	1424.476074	22.975525
248.807465	1155.964600	2434.807373	1322.077637	12.989325
249.185196	1124.107300	2189.051025	1399.445313	25.854700
249.562897	1096.801025	2091.203613	1306.148926	21.052629
249.940567	1110.454102	1945.570313	1347.108276	28.337873
250.318192	1155.964600	1904.610962	1294.771362	18.541033
250.695801	1167.342163	1831.794189	1215.128052	7.191774
251.073349	1174.168701	1733.946899	1349.383789	31.300806
251.450882	1135.484863	1736.222412	1265.189575	21.590912
251.828400	1133.209351	1779.457275	1235.607788	15.845070
252.205872	1115.005249	1758.977539	1283.393677	26.148397
252.583313	1130.933838	1752.151001	1265.189575	21.611723
252.960693	1112.729614	1813.590088	1276.567139	23.376625
253.338074	1071.770264	1909.161987	1251.536499	21.467400
253.715408	1142.311401	1906.886475	1363.036987	28.869053
254.092682	1099.076538	1868.202637	1231.056763	17.159763
254.469955	1087.698975	1749.875488	1192.372925	15.807560
254.847198	1121.831787	1683.885376	1194.648438	12.955464
255.224365	1149.138062	1677.058838	1162.791138	2.586198
255.601563	1115.005249	1738.497925	1165.066650	8.029188
255.978683	1089.974487	1747.599976	1212.852539	18.685110
256.355743	1115.005249	1720.293701	1215.128052	16.541336
256.732819	1171.893188	1720.293701	1206.026001	6.224066
257.109894	1133.209351	1631.548462	1258.363037	25.114161
257.486877	1183.270874	1708.916138	1226.505737	8.225102
257.863831	1142.311401	1731.671387	1340.281738	33.590733
258.240753	1135.484863	1870.478149	1244.709839	14.860677
258.617645	1162.791138	1818.141113	1242.434326	12.152772
258.994507	1060.392700	1970.601074	1287.944824	25.000004
259.371307	1078.596802	2016.111450	1331.179688	26.941753
259.748108	1096.801025	2182.224365	1292.495850	18.029354
260.124878	1121.831787	2361.990479	1349.383789	18.348619
260.501617	1094.525513	2630.501953	1456.333252	23.555553
260.878296	1103.627563	2949.074951	1513.221313	22.194820
261.254944	1115.005249	3015.064941	1522.323364	21.437122
261.631561	1099.076538	3010.513916	1408.547363	16.190477
262.008179	1119.556274	2755.655762	1488.190552	22.531288
262.384735	1096.801025	2416.603027	1331.179688	17.758623
262.761261	1135.484863	2086.652588	1338.006226	21.291866
263.137695	1060.392700	2170.846924	1331.179688	24.385246
263.514191	1108.178589	2093.479248	1335.730713	23.094688
263.890594	1110.454102	2152.642578	1319.802124	20.087347
264.267029	1108.178589	2002.458252	1262.914063	17.302805
264.643341	1067.219238	2016.111450	1335.730713	28.297363
265.019653	1094.525513	2116.234375	1283.393677	18.485518
265.395935	1108.178589	2066.172852	1285.669312	18.527327
265.772217	1144.586914	1966.049927	1353.934937	25.484777
266.148407	1128.658325	1993.356201	1333.455200	23.684212
266.524597	1137.760376	2070.723877	1310.699951	18.536585
266.900726	1119.556274	2027.489014	1394.894287	30.325815
267.276855	1151.413574	2243.663574	1408.547363	23.541660
267.652924	1085.423462	2209.530762	1353.934937	23.886641
268.028992	1105.903076	2327.857666	1369.863525	21.601494
268.404999	1183.270874	2305.102539	1435.853638	22.515211
268.781006	1137.760376	2389.296875	1358.485962	17.636368
269.156921	1062.668213	2296.000488	1376.690063	25.461252
269.532837	1171.893188	2346.062012	1381.241089	17.829454
269.908661	1165.066650	2296.000488	1367.588013	17.907446
270.284546	1112.729614	2250.489990	1301.597900	16.600006
270.660339	1076.321289	2248.214600	1363.036987	24.466024
271.036133	1185.546387	2282.347412	1340.281738	14.107878
271.411835	1101.352051	2473.491211	1369.863525	19.568823
271.787537	1137.760376	2493.970703	1401.720825	19.463091
272.163239	1151.413574	2703.318604	1474.537476	20.821114
272.538849	1105.903076	2873.982666	1465.435425	20.334625
272.914459	1119.556274	2960.452637	1522.323364	21.878857
273.290070	1165.066650	2855.778564	1520.047852	20.995960
273.665588	1080.872437	2673.737061	1438.129150	22.428568
274.041046	1135.484863	2707.869873	1454.057739	20.260489
274.416565	1180.995239	2664.634766	1492.741699	21.012278
274.791962	1117.280762	2637.328613	1347.108276	15.119755
275.167389	1055.841675	2553.134277	1399.445313	22.948330
275.542755	1121.831787	2450.735840	1392.618774	20.376715
275.918060	1033.086426	2455.286865	1344.832764	21.920000
276.293365	1117.280762	2514.450439	1442.680176	23.289900
276.668640	1124.107300	2523.552490	1467.710938	24.552847
277.043854	1060.392700	2614.573486	1442.680176	24.597363
277.419037	1083.147949	2546.307861	1510.945801	29.237942
277.794189	1119.556274	2557.685303	1410.822876	20.253162
278.169312	1126.382813	2548.583252	1447.231201	22.559998
278.544373	1117.280762	2607.746826	1495.017212	25.343512
278.919464	1135.484863	2580.440674	1501.843750	25.354332
279.294464	1103.627563	2559.960938	1488.190552	26.406246
279.669464	1171.893188	2573.614014	1490.466064	22.727270
280.044403	1165.066650	2630.501953	1451.782227	19.565216
280.419312	1206.026001	2650.981689	1447.231201	16.692913
280.794189	1140.035889	2594.093750	1599.691162	31.611897
281.169037	1121.831787	2728.349365	1554.180664	26.912178
281.543854	1192.372925	2710.145264	1567.833862	24.737633
281.918671	1144.586914	2769.308838	1499.568237	21.848743
282.293365	1121.831787	2908.115479	1581.486938	25.732483
282.668091	1096.801025	3165.249512	1631.548462	25.852587
283.042786	1089.974487	3099.259277	1558.731689	23.329556
283.417419	1094.525513	3281.301025	1608.793213	23.517170
283.792053	1146.862427	3197.106689	1617.895264	22.974476
284.166595	1130.933838	2990.034424	1649.752563	27.906975
284.541138	1121.831787	3035.544678	1510.945801	20.332935
284.915619	1080.872437	2910.391113	1515.496826	23.756214
285.290100	1121.831787	3008.238525	1558.731689	23.160429
285.664520	1165.066650	3094.708252	1590.588989	22.051884
286.038940	1119.556274	3081.055176	1658.854614	27.494196
286.413300	1105.903076	3215.310791	1633.823975	25.026974
286.787628	1153.689087	3281.301025	1706.640625	25.989305
287.161896	1160.515625	3399.628174	1665.681274	22.560976
287.536194	1130.933838	3390.525879	1708.916138	25.579056
287.910400	1128.658325	3388.250488	1702.089600	25.377644
288.284607	1003.504700	3351.842041	1624.721802	26.453485
288.658752	1155.964600	3060.575439	1611.068726	23.894861
289.032867	1121.831787	3005.962891	1615.619751	26.207729
289.406921	1121.831787	3083.330566	1638.375000	26.334108
289.781006	1124.107300	3160.698486	1636.099487	25.139664
290.154999	1146.862427	3194.831299	1590.588989	21.666666
290.529022	1133.209351	3281.301025	1686.160889	25.741522
290.902954	1053.566162	3404.179199	1740.773438	29.235237
291.276825	1103.627563	3479.271240	1752.151001	27.298853
291.650757	1069.494751	3458.791504	1756.702026	28.761904
292.024597	1094.525513	3392.801514	1692.987427	26.039602
292.398407	1085.423462	3401.903564	1781.732788	30.058941
292.772156	1178.719727	3345.015625	1727.120239	25.315125
293.145905	1096.801025	3247.168213	1613.344238	24.021164
293.519592	1146.862427	3217.586426	1647.477051	24.175825
293.893280	1130.933838	3285.852051	1679.334351	25.448786
294.266907	1078.596802	3228.964111	1699.814087	28.888893
294.640533	1069.494751	3429.209961	1695.262939	26.518801
295.014069	1083.147949	3429.209961	1781.732788	29.776913
295.387604	1121.831787	3686.343750	1790.834839	26.086954
295.761078	1085.423462	3754.609375	1831.794189	27.962484
296.134552	1128.658325	3677.241699	1820.416626	27.142855
296.507996	1165.066650	3718.200928	1900.059814	28.787878
296.881378	1067.219238	3759.160400	1758.977539	25.697378
297.254730	1080.872437	3988.988037	1915.988525	28.716742
297.628021	1126.382813	4070.906738	1881.855713	25.656878
298.001282	1142.311401	4159.651855	1900.059814	25.113123
298.374573	1121.831787	4282.530273	1852.273926	23.110149
298.747803	1096.801025	4257.499512	1868.202637	24.406048
299.121002	1096.801025	3988.988037	1784.008301	23.760817
299.494141	1124.107300	3729.578613	1749.875488	24.017467
299.867188	1119.556274	3624.904541	1815.865601	27.792917
300.240265	1076.321289	3720.476563	1847.722900	29.173840
300.613312	1174.168701	3681.792725	1731.671387	22.232307
300.986328	1224.230225	3520.230713	1699.814087	20.713579
301.359314	1094.525513	3499.750977	1706.640625	25.449385
301.732239	1194.648438	3367.770752	1661.130127	21.465965
302.105103	1171.893188	3447.414063	1711.191650	23.699999
302.477997	1080.872437	3608.976074	1688.436401	24.032400
302.850830	1149.138062	3593.047363	1713.467163	23.091248
303.223602	1140.035889	3422.383301	1672.507813	23.330011
303.596375	1119.556274	3497.475586	1629.272949	21.435406
303.969116	1101.352051	3251.719238	1663.405762	26.137569
304.341766	1110.454102	3319.984863	1656.579102	24.716787
304.714478	1135.484863	3324.535889	1645.201538	23.284824
305.087067	1051.290649	3224.413086	1647.477051	27.434551
305.459656	1126.382813	3279.025391	1647.477051	24.207188
305.832214	1085.423462	3165.249512	1645.201538	26.914658
306.204681	1174.168701	3190.280273	1656.579102	23.927763
306.577148	1151.413574	3299.505127	1538.252075	18.008474
306.949646	1180.995239	3397.352539	1695.262939	23.203283
307.322021	1126.382813	3228.964111	1601.966675	22.619047
307.694397	1128.658325	3308.607178	1595.140137	21.398752
308.066742	1058.117188	3408.730225	1636.099487	24.588577
308.439026	1092.250000	3370.046387	1665.681274	25.174826
308.811279	1128.658325	3527.057129	1729.395752	25.047436
309.183502	1067.219238	3677.241699	1722.569214	25.108978
309.555695	1112.729614	3654.486328	1804.488037	27.215759
309.927887	1071.770264	3656.761963	1752.151001	26.320423
310.299988	1146.862427	3688.619141	1683.885376	21.128023
310.672058	1146.862427	3788.742188	1781.732788	24.031008
311.044128	1155.964600	3777.364502	1729.395752	21.874996
311.416168	1119.556274	3872.936523	1754.426514	23.057848
311.788147	1115.005249	3781.915527	1656.579102	20.307165
312.160065	1199.199463	3829.701416	1692.987427	18.771626
312.531982	1089.974487	3822.875000	1697.538574	22.231476
312.903870	1130.933838	3659.037354	1763.528564	25.022501
313.275696	1117.280762	3579.394287	1665.681274	22.273567
313.647491	1149.138062	3627.180176	1615.619751	18.824608
314.019318	1119.556274	3554.363525	1613.344238	20.280373
314.391022	1124.107300	3488.373291	1624.721802	21.174202
314.762726	1124.107300	3556.638916	1654.303589	21.796068
315.134369	1126.382813	3684.068115	1686.160889	21.886120
315.505981	1194.648438	3668.139648	1688.436401	19.963198
315.877594	1092.250000	3866.109863	1699.814087	21.903200
316.249146	1096.801025	3740.956299	1677.058838	21.944921
316.620636	1169.617676	3606.700439	1592.864502	17.366945
316.992157	1194.648438	3513.404053	1606.517700	17.762512
317.363586	1121.831787	3411.005615	1638.375000	22.564613
317.735016	1094.525513	3442.863037	1663.405762	24.224810
318.106354	1117.280762	3385.974854	1592.864502	20.962885
318.477722	1099.076538	3399.628174	1706.640625	26.409494
318.849060	1153.689087	3458.791504	1667.956787	22.309971
319.220306	1180.995239	3504.302002	1611.068726	18.511267
319.591522	1083.147949	3602.149414	1586.037964	19.963863
319.962738	1103.627563	3631.731201	1617.895264	20.342035
320.333923	1167.342163	3588.496338	1524.598877	14.755636
320.705017	1076.321289	3492.924316	1611.068726	22.128063
321.076111	1105.903076	3577.118652	1520.047852	16.758747
321.447144	1151.413574	3449.689453	1645.201538	21.485147
321.818176	1160.515625	3467.893799	1563.282837	17.455622
322.189178	1085.423462	3333.637939	1563.282837	21.255062
322.560120	1144.586914	3417.832275	1570.109375	18.718721
322.931030	1115.005249	3508.853027	1586.037964	19.676804
323.301910	1174.168701	3590.771729	1645.201538	19.491528
323.672729	1124.107300	3779.640137	1597.415649	17.823481
324.043549	1140.035889	3829.701416	1770.355225	23.434860
324.414337	1162.791138	3966.232666	1743.048950	20.698053
324.785095	1089.974487	4241.570801	1758.977539	21.227436
325.155792	1080.872437	4216.540039	1692.987427	19.521042
325.526428	1151.413574	4312.111816	1749.875488	18.934484
325.897034	1160.515625	4091.386475	1697.538574	18.322983
326.267670	1078.596802	4116.416992	1736.222412	21.647943
326.638184	1165.066650	3959.406250	1706.640625	19.381107
327.008728	1083.147949	4152.825684	1752.151001	21.793919
327.379211	1101.352051	4064.080078	1765.804199	22.427038
327.749634	1103.627563	4043.600586	1690.711914	19.969038
328.120026	1133.209351	4077.733398	1722.569214	20.015455
328.490417	1115.005249	3841.079102	1681.609863	20.784639
328.860748	1058.117188	3982.161377	1679.334351	21.245136
329.231079	1105.903076	3809.221924	1702.089600	22.053873
329.601318	1171.893188	3797.844238	1699.814087	20.103987
329.971558	1076.321289	3879.762939	1672.507813	21.266235
330.341736	1130.933838	3941.202148	1645.201538	18.299595
330.711914	1133.209351	3925.273438	1665.681274	19.070908
331.082062	1155.964600	4007.192139	1688.436401	18.675177
331.452148	1212.852539	3968.508301	1697.538574	17.588774
331.822174	1137.760376	3943.477539	1713.467163	20.519058
332.192200	1169.617676	4064.080078	1692.987427	18.081760
332.562134	1121.831787	4084.559814	1656.579102	18.049152
332.932129	1119.556274	4134.621094	1656.579102	17.811319
333.302063	1144.586914	4282.530273	1683.885376	17.186367
333.671906	1174.168701	4325.765137	1727.120239	17.545126
334.041718	1126.382813	4314.387207	1695.262939	17.844397
334.411499	1103.627563	4362.173340	1772.630737	20.530727
334.781281	1117.280762	4318.938477	1768.079712	20.326937
335.151001	1160.515625	4423.612305	1736.222412	17.642958
335.520721	1135.484863	4198.335938	1642.926025	16.567608
335.890350	1126.382813	4266.601563	1765.804199	20.362320
336.259979	1174.168701	4355.346680	1768.079712	18.669531
336.629547	1135.484863	4382.652832	1692.987427	17.168886
336.999084	1144.586914	4273.428223	1702.089600	17.818184
337.368622	1165.066650	4419.061523	1731.671387	17.412588
337.738098	1096.801025	4421.336914	1697.538574	18.069817
338.107513	1112.729614	4328.040527	1722.569214	18.966738
338.476898	1165.066650	4355.346680	1809.039063	20.185452
338.846252	1087.698975	4371.275391	1804.488037	21.829523
339.215576	1080.872437	4507.806641	1699.814087	18.061090
339.584869	1124.107300	4243.846191	1790.834839	21.371262
339.954132	1137.760376	4485.051270	1704.365112	16.927263
340.323334	1035.361938	4312.111816	1745.324463	21.666668
340.692505	1126.382813	4237.019531	1681.609863	17.849306
341.061646	1130.933838	4082.284424	1681.609863	18.658442
341.430786	1130.933838	4300.734375	1724.844727	18.736538
341.799896	1146.862427	4382.652832	1713.467163	17.510551
342.168915	1108.178589	4437.265625	1727.120239	18.591934
342.537903	1158.240112	4523.735352	1692.987427	15.889112
342.906830	1062.668213	4566.970215	1606.517700	15.519481
343.275757	1108.178589	4687.572754	1702.089600	16.592501
343.644684	1176.444214	4758.113770	1802.212524	17.471415
344.013550	1155.964600	4849.134766	1758.977539	16.327787
344.382355	1140.035889	4749.011719	1708.916138	15.762928
344.751129	1117.280762	5090.339844	1840.896362	18.213058
345.119873	1142.311401	5306.514648	1777.181763	15.245903
345.488586	1126.382813	5304.238770	1863.651489	17.647058
345.857269	1169.617676	5497.658203	1847.722900	15.667719
346.225891	1126.382813	5720.659180	1888.682251	16.592373
346.594482	1178.719727	5527.240234	1824.967651	14.861329
346.963043	976.198425	5600.056641	1770.355225	17.175198
347.331543	1074.045776	5397.535156	1804.488037	16.894739
347.700043	1115.005249	5254.177734	1799.937012	16.547554
348.068512	1135.484863	5133.574707	1763.528564	15.708594
348.436951	1080.872437	5067.584961	1695.262939	15.410956
348.805328	1105.903076	4824.104004	1708.916138	16.217873
349.173645	1153.689087	4846.859375	1688.436401	14.479357
349.541931	1169.617676	4924.227051	1747.599976	15.393940
349.910217	1096.801025	4937.880371	1745.324463	16.883886
350.278473	1085.423462	5147.228027	1765.804199	16.750700
350.646667	1092.250000	5026.625488	1620.170776	13.418159
351.014801	1128.658325	5249.626465	1806.763550	16.454998
351.382935	1144.586914	5279.208496	1733.946899	14.254267
351.751007	1087.698975	5204.116211	1690.711914	14.648976
352.119049	1140.035889	5267.830566	1749.875488	14.773980
352.487091	1112.729614	5315.616699	1686.160889	13.643746
352.855072	1069.494751	5440.770020	1740.773438	15.356586
353.222992	1149.138062	5192.738281	1804.488037	16.207092
353.590881	1201.474976	5565.923828	1790.834839	13.503650
353.958740	1126.382813	5556.821777	1859.100464	16.538263
354.326599	1158.240112	5759.343262	1806.763550	14.094955
354.694397	1121.831787	5825.333008	1900.059814	16.545719
355.062134	1140.035889	6059.711914	1854.549438	14.523590
355.429840	1133.209351	6241.753418	1788.559326	12.828508
355.797516	1103.627563	6294.090332	1909.161987	15.519510
356.165192	1167.342163	6118.875488	1875.029175	14.292280
356.532776	1160.515625	6512.540527	1959.223389	14.923469
356.900360	1135.484863	6608.112305	1904.610962	14.054055
357.267883	1101.352051	6705.959961	1913.713013	14.494519
357.635376	1124.107300	7195.196777	1934.192627	13.343328
358.002808	1144.586914	7529.698242	2020.662476	13.720599
358.370270	1128.658325	7525.147461	2057.070801	14.514407
358.737640	1117.280762	7591.137207	2079.825928	14.868188
359.105011	1115.005249	7613.892578	2084.376953	14.915964
359.472321	1137.760376	7504.667480	1961.498901	12.937813
359.839569	1165.066650	7406.820313	2009.284912	13.525337
360.206787	1099.076538	7174.717285	1906.886475	13.295881
360.574005	1121.831787	7306.697266	2020.662476	14.532745
360.941193	1108.178589	8005.282227	2036.591064	13.460904
361.308319	1180.995239	8314.752930	2129.887451	13.301435
361.675415	1071.770264	8747.101563	2150.367188	14.052774
362.042450	1201.474976	9238.614258	2382.470215	14.694224
362.409424	1135.484863	9655.035156	2314.204590	13.835468
362.776428	1099.076538	10223.915039	2361.990479	13.840397
363.143402	1049.015137	9670.963867	2336.959961	14.937978
363.510284	1144.586914	8986.031250	2227.734863	13.813118
363.877136	1096.801025	8194.150391	2266.418701	16.479641
364.243988	1146.862427	7582.035156	1988.805176	13.083452
364.610779	1103.627563	7247.533691	1956.947876	13.888889
364.977539	1146.862427	7361.309570	1981.978638	13.438302
365.344269	1137.760376	6928.960938	1888.682251	12.966600
365.710938	1140.035889	6940.338379	1784.008301	11.102393
366.077576	1153.689087	6803.807129	1890.957764	13.048730
366.444183	1089.974487	6742.368164	1845.447388	13.365540
366.810760	1142.311401	6580.806152	1854.549438	13.096235
367.177277	1103.627563	6665.000488	1954.672363	15.302782
367.543823	1062.668213	6787.878418	1920.539551	14.984102
367.910248	1094.525513	6567.152832	1897.784302	14.677753
368.276642	1146.862427	6617.214355	1824.967651	12.396007
368.643036	1180.995239	6564.877441	1877.304688	12.933222
369.009399	1128.658325	6485.234375	1843.171875	13.338997
369.375671	1121.831787	6321.396973	1811.314575	13.260392
369.741974	1153.689087	6398.764648	1786.283813	12.060736
370.108215	1064.943726	6514.815918	1806.763550	13.611692
370.474396	1105.903076	6341.876465	1824.967651	13.733159
370.840546	1135.484863	6419.244141	1847.722900	13.479759
371.206665	1115.005249	6437.448242	1854.549438	13.894826
371.572784	1155.964600	6621.765625	1834.069824	12.406329
371.938843	1105.903076	6726.439453	1818.141113	12.672066
372.304840	1076.321289	6767.398926	1988.805176	16.033587
372.670807	1165.066650	6776.500977	1991.080688	14.720194
373.036713	1231.056763	6899.378906	1893.233276	11.682055
373.402649	1110.454102	6678.653320	1879.580200	13.812834
373.768524	1083.147949	6771.949707	1836.345337	13.240001
374.134308	1135.484863	6851.593262	1811.314575	11.823249
374.500122	1144.586914	6865.246094	1859.100464	12.490056
374.865875	1060.392700	6944.889648	1943.294800	15.003867
375.231567	1158.240112	6799.256348	1818.141113	11.698265
375.597260	1128.658325	7097.349609	1900.059814	12.924130
375.962891	1087.698975	7308.972656	1961.498901	14.045355
376.328461	1201.474976	7242.982910	1868.202637	11.035783
376.694031	1092.250000	7393.166992	1947.845825	13.578910
377.059540	1092.250000	7786.832031	1954.672363	12.882393
377.425049	1087.698975	8210.079102	1981.978638	12.555911
377.790497	1115.005249	8298.824219	1995.631714	12.258472
378.155945	1101.352051	8606.019531	2041.142212	12.522742
378.521301	1099.076538	8460.386719	2043.417725	12.828439
378.886597	1076.321289	8371.640625	1968.325439	12.227075
379.251892	1117.280762	8016.659668	1950.121338	12.071239
379.617157	1078.596802	7784.556641	1979.703125	13.437395
379.982422	1110.454102	7682.158203	1911.437500	12.188367
380.347595	1051.290649	7456.881836	1870.478149	12.788632
380.712738	1119.556274	7370.412109	1847.722900	11.649071
381.077820	1128.658325	7481.912598	1865.927002	11.604583
381.442902	1130.933838	7402.269043	1872.753662	11.828738
381.807953	1153.689087	7545.626953	1918.264038	11.961552
382.172974	1112.729614	7363.585449	1897.784302	12.559155
382.537933	1069.494751	7356.758789	1941.019287	13.861745
382.902832	1176.444214	7493.290039	1945.570313	12.175794
383.267700	1142.311401	7616.167969	1813.590088	10.369070
383.632538	1105.903076	7620.719238	1909.161987	12.329724
383.997345	1153.689087	7739.046387	1849.998413	10.573600
384.362152	1026.259888	8103.129395	1929.641602	12.765273
384.726898	1089.974487	8080.374512	1920.539551	11.881510
385.091553	1133.209351	8212.354492	1947.845825	11.507555
385.456238	1108.178589	8175.946289	1900.059814	11.204121
385.820862	1133.209351	8094.027344	1852.273926	10.330173
386.185425	1117.280762	8212.354492	1895.508789	10.968569
386.549988	1092.250000	8296.548828	1954.672363	11.970941
386.914490	1155.964600	8580.989258	1934.192627	10.481151
387.278961	1199.199463	8560.508789	1915.988525	9.737249
387.643372	1210.577026	8635.601563	1879.580200	9.010114
388.007782	1115.005249	8535.478516	1900.059814	10.579576
388.372101	1146.862427	8592.366211	1936.468262	10.605136
388.736450	1119.556274	8646.979492	1856.824951	9.794436
389.100739	1151.413574	8631.050781	2022.937988	11.651961
389.464966	1137.760376	8426.253906	1836.345337	9.584764
389.829163	1135.484863	8369.365234	1856.824951	9.971689
390.193329	1053.566162	8526.375977	1802.212524	10.018271
390.557495	1105.903076	8478.590820	1840.896362	9.969136
390.921570	1146.862427	8590.090820	1904.610962	10.180374
391.285614	1085.423462	8883.632813	1966.049927	11.292675
391.649597	1055.841675	9202.206055	1975.152100	11.284917
392.013550	1064.943726	9568.565430	2077.550537	11.907947
392.377502	1058.117188	9871.208984	1931.917114	9.914794
392.741455	1176.444214	9925.821289	2043.417725	9.908975
393.105316	1080.872437	9859.832031	2036.591064	10.886468
393.469086	1151.413574	9618.625977	1961.498901	9.567320
393.832886	1062.668213	9641.381836	2002.458252	10.954906
394.196655	1130.933838	9586.769531	2032.040039	10.656619
394.560333	1124.107300	9773.362305	1972.876587	9.813207
394.924042	1160.515625	9937.199219	1945.570313	8.944776
395.287659	1142.311401	9975.882813	2000.182739	9.711490
395.651245	1128.658325	9814.321289	2002.458252	10.060256
396.014771	1146.862427	9434.309570	2045.693237	10.845690
396.378296	1105.903076	9108.910156	1934.192627	10.349730
396.741791	1099.076538	9036.092773	1906.886475	10.177753
397.105255	1130.933838	8890.459961	1995.631714	11.143694
397.468628	1137.760376	8617.397461	1788.559326	8.700943
397.832001	1089.974487	8653.805664	1827.243164	9.747292
398.195313	1064.943726	8692.489258	1840.896362	10.173032
398.558624	1042.188477	8854.051758	1856.824951	10.428197
398.921844	1137.760376	8774.408203	1870.478149	9.594756
399.285095	1135.484863	8672.009766	1818.141113	9.057971
399.648254	1160.515625	8926.868164	1877.304688	9.229417
400.011383	1037.637451	8958.725586	1824.967651	9.939672
400.374451	1158.240112	8801.714844	1865.927002	9.258707
400.737549	1135.484863	8815.367188	1929.641602	10.340741
401.100586	1158.240112	8617.397461	1959.223389	10.738255
401.463562	1121.831787	8844.949219	1822.692139	9.074838
401.826508	1117.280762	8988.307617	1870.478149	9.569240
402.189392	1121.831787	8797.163086	1865.927002	9.694633
402.552246	1158.240112	8883.632813	1984.254150	10.692195
402.915070	1089.974487	8963.276367	1900.059814	10.289017
403.277893	1112.729614	9231.788086	1961.498901	10.454036
403.640656	1103.627563	9359.216797	1877.304688	9.371556
404.003326	1167.342163	9682.340820	1925.090576	8.898984
404.366028	1174.168701	9789.290039	1934.192627	8.821976
404.728699	1117.280762	10121.516602	2050.244141	10.361382
405.091248	1149.138062	10430.987305	2007.009399	9.242461
405.453857	1119.556274	10622.130859	2050.244141	9.794061
405.816345	1105.903076	10394.579102	1975.152100	9.358159
406.178833	1121.831787	10248.945313	1991.080688	9.523809
406.541260	1115.005249	10394.579102	2066.172852	10.250121
406.903687	1171.893188	10085.108398	1927.366089	8.475875
407.266052	1203.750488	9932.648438	1988.805176	8.993743
407.628387	1174.168701	9880.311523	1893.233276	8.259278
407.990662	1153.689087	9684.616211	1909.161987	8.855696
408.352905	1126.382813	9896.240234	1950.121338	9.392838
408.715118	1117.280762	9914.444336	1950.121338	9.467149
409.077332	1130.933838	9529.880859	1890.957764	9.049038
409.439484	1167.342163	9816.596680	1904.610962	8.524073
409.801575	1146.862427	9764.259766	1931.917114	9.110113
410.163605	1167.342163	9809.770508	1840.896362	7.793575
410.525635	1169.617676	10219.364258	1902.335449	8.096556
410.887604	1160.515625	10114.690430	1966.049927	8.996187
411.249573	1169.617676	10349.068359	1915.988525	8.130888
411.611481	1046.739624	10235.292969	1881.855713	9.088656
411.973328	1169.617676	10267.149414	1934.192627	8.404202
412.335144	1126.382813	10201.160156	1852.273926	7.998996
412.696930	1115.005249	10219.364258	1947.845825	9.147712
413.058685	1096.801025	10103.312500	1911.437500	9.044972
413.420410	1185.546387	10155.649414	1959.223389	8.625062
413.782104	1103.627563	9934.923828	1849.998413	8.451430
414.143707	1101.352051	10221.639648	1911.437500	8.882236
414.505310	1199.199463	10246.669922	1920.539551	7.972837
414.866852	1158.240112	10201.160156	1966.049927	8.933064
415.228394	1112.729614	10567.518555	2018.386963	9.578821
415.589874	1071.770264	10681.294922	1927.366089	8.903623
415.951324	1151.413574	10544.763672	1959.223389	8.599806
416.312683	1196.923950	11029.449219	2013.835938	8.308262
416.674072	1169.617676	11241.073242	2004.733887	8.291912
417.035370	1162.791138	11332.093750	2045.693237	8.682032
417.396667	1089.974487	11839.535156	2070.723877	9.123623
417.757935	1062.668213	11850.912109	2148.091553	10.061168
418.119141	1108.178589	12192.240234	2041.142212	8.417164
418.480286	1135.484863	12686.028320	2013.835938	7.604414
418.841400	1158.240112	13109.275391	2166.295898	8.434882
419.202484	1144.586914	13525.695313	2236.836914	8.821908
419.563568	1049.015137	14215.178711	2286.898438	9.402004
419.924591	1133.209351	14847.773438	2282.347412	8.378962
420.285553	1089.974487	14786.333984	2218.632813	8.240572
420.646484	1124.107300	16060.625977	2371.092773	8.348568
421.007355	1076.321289	16636.332031	2341.510986	8.131034
421.368225	1171.893188	17164.253906	2541.756836	8.565738
421.729065	1151.413574	17617.082031	2532.654541	8.388612
422.089874	1092.250000	18195.064453	2546.307861	8.501863
422.450592	1099.076538	18108.593750	2507.624023	8.280937
422.811279	1074.045776	18092.666016	2600.920166	8.971786
423.171936	1151.413574	17962.960938	2648.706299	8.906335
423.532593	1103.627563	17792.296875	2434.807373	7.976548
423.893127	1101.352051	17967.511719	2575.889648	8.742580
424.253723	1203.750488	18302.013672	2539.481201	7.812084
424.614197	1151.413574	18393.035156	2607.746826	8.446614
424.974670	1110.454102	18729.812500	2646.430664	8.717550
425.335052	1108.178589	19203.119141	2710.145264	8.853119
425.695496	1144.586914	18263.330078	2532.654541	8.108467
426.055817	1162.791138	18358.902344	2660.083740	8.707158
426.416168	1140.035889	18479.503906	2519.001465	7.952755
426.776398	1130.933838	17225.693359	2530.379150	8.695037
427.136627	1076.321289	16615.853516	2459.837891	8.903206
427.496826	1212.852539	16404.228516	2484.868652	8.373278
427.856995	1124.107300	15714.747070	2416.603027	8.858390
428.217102	1074.045776	15057.121094	2259.592041	8.478437
428.577179	1067.219238	15182.274414	2305.102539	8.769951
428.937195	1108.178589	14877.355469	2270.969727	8.444885
429.297180	1185.546387	14313.025391	2316.480225	8.615012
429.657135	1165.066650	14167.392578	2223.183838	8.137907
430.017059	1130.933838	14408.597656	2182.224365	7.917737
430.376984	1124.107300	14117.331055	2255.041016	8.704027
430.736786	1108.178589	13805.584961	2195.877686	8.566309
431.096588	1151.413574	13566.655273	2223.183838	8.632697
431.456360	1133.209351	13876.125977	2186.775391	8.267856
431.816071	1130.933838	13266.286133	2148.091553	8.381773
432.175781	1124.107300	13630.369141	2154.918213	8.242358
432.535400	1108.178589	13589.410156	2218.632813	8.896993
432.895020	1110.454102	13659.951172	2291.449463	9.410699
433.254578	1096.801025	13659.951172	2186.775391	8.675963
433.614105	1055.841675	14055.891602	2245.938965	9.154559
433.973602	1094.525513	14492.791992	2291.449463	8.933424
434.333038	1119.556274	14215.178711	2227.734863	8.462207
434.692444	1115.005249	14588.364258	2300.551514	8.799189
435.051819	1062.668213	14688.486328	2243.663574	8.667336
435.411133	1110.454102	14825.017578	2264.143311	8.412147
435.770416	1096.801025	13978.524414	2175.397949	8.373079
436.129669	1099.076538	14740.824219	2321.031250	8.957464
436.488861	1062.668213	14283.444336	2255.041016	9.018931
436.848083	1180.995239	14151.463867	2277.796387	8.456141
437.207184	1199.199463	14219.729492	2257.316650	8.126529
437.566254	1135.484863	14490.516602	2293.724854	8.672687
437.925293	1110.454102	14465.485352	2302.827148	8.928268
438.284363	1146.862427	14474.587891	2204.979736	7.939219
438.643311	1121.831787	14895.559570	2227.734863	8.029077
439.002258	1140.035889	14784.058594	2277.796387	8.338894
439.361145	1260.638550	15532.705078	2398.398926	7.971939
439.719971	1124.107300	16067.452148	2346.062012	8.177250
440.078827	1105.903076	16160.749023	2578.165039	9.779323
440.437592	1128.658325	16809.271484	2412.052002	8.184588
440.796295	1049.015137	16959.457031	2414.327637	8.581236
441.155029	1103.627563	17767.265625	2489.419678	8.316263
441.513672	1110.454102	18297.462891	2635.052979	8.870647
441.872253	1187.821899	18154.105469	2598.644775	8.315451
442.230865	1076.321289	17605.705078	2607.746826	9.264868
442.589386	1085.423462	17739.960938	2509.899414	8.553081
442.947876	1121.831787	17587.500000	2573.614014	8.817026
443.306335	1160.515625	17435.041016	2514.450439	8.319350
443.664764	1158.240112	16292.728516	2493.970703	8.825740
444.023102	1105.903076	16809.271484	2446.184814	8.534995
444.381500	1071.770264	16688.669922	2482.593262	9.033951
444.739777	1115.005249	16829.751953	2416.603027	8.282652
445.098022	1112.729614	17027.722656	2530.379150	8.907636
445.456238	1074.045776	16816.099609	2523.552490	9.207863
445.814423	1092.250000	17423.662109	2450.735840	8.318238
446.172577	1124.107300	18329.320313	2691.941162	9.112552
446.530701	1117.280762	18502.259766	2664.634766	8.900523
446.888733	1146.862427	18923.230469	2603.195801	8.192525
447.246765	1071.770264	19824.337891	2771.584229	9.064433
447.604736	1135.484863	19398.814453	2773.859863	8.970845
447.962677	1069.494751	19378.335938	2735.176025	9.097688
448.320587	1103.627563	19612.712891	2707.869873	8.667323
448.678436	1171.893188	19376.060547	2819.370361	9.050000
449.036255	1101.352051	19171.263672	2771.584229	9.243167
449.394043	1080.872437	18165.482422	2742.002686	9.722963
449.751770	1121.831787	18577.351563	2730.625000	9.216530
450.109467	1130.933838	18195.064453	2578.165039	8.481131
450.467163	1121.831787	17692.173828	2573.614014	8.761330
450.824768	1137.760376	17526.060547	2573.614014	8.761456
451.182343	1140.035889	17180.181641	2573.614014	8.937438
451.539886	1087.698975	16511.179688	2569.062988	9.604603
451.897369	1074.045776	16818.375000	2639.604248	9.943634
452.254822	1108.178589	16527.107422	2630.501953	9.873081
452.612274	1115.005249	17064.130859	2566.787354	9.102581
452.969635	1119.556274	16850.232422	2578.165039	9.272385
453.326965	1121.831787	16579.445313	2557.685303	9.288973
453.684326	1110.454102	16574.892578	2505.348389	9.020013
454.041534	1042.188477	16290.453125	2450.735840	9.237428
454.398773	1144.586914	15771.634766	2482.593262	9.147480
454.755951	1112.729614	15605.521484	2425.705078	9.059506
455.113098	1096.801025	15077.600586	2350.613037	8.968100
455.470215	1094.525513	15207.305664	2498.521729	9.948402
455.827240	1121.831787	15088.978516	2457.562500	9.563375
456.184265	1099.076538	15048.019531	2350.613037	8.972267
456.541260	1160.515625	14916.039063	2405.225586	9.048801
456.898193	1099.076538	15207.305664	2371.092773	9.016129
457.255096	1115.005249	15352.938477	2500.797363	9.733099
457.611969	1146.862427	15141.315430	2409.776611	9.024391
457.968781	1115.005249	15109.458008	2484.868652	9.788617
458.325531	1149.138062	15318.805664	2455.286865	9.217921
458.682312	1137.760376	16374.647461	2489.419678	8.870968
459.039001	1128.658325	16679.568359	2482.593262	8.706468
459.395630	1176.444214	17664.867188	2587.267090	8.556445
459.752289	1128.658325	18577.351563	2819.370361	9.689620
460.108856	1115.005249	20338.605469	2823.921387	8.889678
460.465363	1190.097412	20923.414063	3056.024414	9.455719
460.821899	1112.729614	21157.792969	2978.656738	9.308662
461.178345	1124.107300	20495.615234	2842.125488	8.868789
461.534760	1069.494751	20183.869141	2935.421875	9.761905
461.891144	1074.045776	19822.062500	2780.686523	9.103046
462.247467	1130.933838	18272.431641	2785.237549	9.650870
462.603760	1108.178589	18226.921875	2650.981689	9.012362
462.960052	1076.321289	17271.203125	2723.798340	10.172826
463.316254	1042.188477	16859.333984	2673.737061	10.315063
463.672424	1128.658325	16349.617188	2521.277100	9.149350
464.028564	1112.729614	16115.238281	2682.839111	10.465646
464.384644	1121.831787	16010.564453	2491.695313	9.200672
464.740723	1087.698975	15917.267578	2478.042236	9.375481
465.096741	1078.596802	16167.575195	2489.419678	9.350022
465.452698	1160.515625	15687.440430	2466.664551	8.991228
465.808655	1080.872437	15869.482422	2569.062988	10.063086
466.164520	1176.444214	15928.645508	2509.899414	9.039025
466.520355	1149.138062	16392.851563	2571.338623	9.329751
466.876190	1080.872437	16515.730469	2587.267090	9.759692
467.231964	1124.107300	16388.300781	2550.858887	9.347049
467.587677	1210.577026	17095.988281	2603.195801	8.766652
467.943390	1153.689087	17398.632813	2639.604248	9.146939
468.299011	1165.066650	16822.925781	2587.267090	9.082981
468.654633	1060.392700	16722.802734	2600.920166	9.835826
469.010223	1121.831787	16768.312500	2598.644775	9.438627
469.365723	1135.484863	16190.330078	2534.930176	9.295647
469.721191	1169.617676	16538.484375	2594.093750	9.268582
470.076660	1110.454102	15651.032227	2446.184814	9.186229
470.432068	1092.250000	16035.594727	2482.593262	9.304097
470.787445	1130.933838	15753.430664	2489.419678	9.290382
471.142792	1135.484863	15707.919922	2464.388916	9.119300
471.498016	1130.933838	16269.973633	2521.277100	9.183827
471.853271	1153.689087	16044.697266	2528.103516	9.229828
472.208496	1064.943726	15944.574219	2584.991699	10.215630
472.563660	1137.760376	16101.584961	2484.868652	9.002433
472.918762	1130.933838	16356.443359	2614.573486	9.744433
473.273865	1155.964600	16870.710938	2537.205811	8.789459
473.628876	1108.178589	17596.601563	2582.716064	8.942865
473.983917	1128.658325	17155.150391	2648.706299	9.484595
474.338837	1144.586914	17239.345703	2650.981689	9.359536
474.693787	1160.515625	17255.273438	2662.359375	9.331261
475.048645	1062.668213	17146.048828	2614.573486	9.649123
475.403503	1146.862427	17264.376953	2564.511963	8.795708
475.758270	1069.494751	17598.876953	2630.501953	9.443832
476.113037	1117.280762	17073.232422	2676.012451	9.768968
476.467773	1155.964600	17755.888672	2689.665527	9.239204
476.822418	1187.821899	18370.279297	2751.104736	9.098133
477.177063	1162.791138	18236.023438	2673.737061	8.849794
477.531647	1085.423462	18741.189453	2862.605225	10.065730
477.886200	1117.280762	19159.884766	2769.308838	9.156262
478.240723	1053.566162	19487.560547	2848.952148	9.739538
478.595184	1221.954712	19899.429688	2933.146240	9.161793
478.949585	1105.903076	20202.074219	2792.063965	8.829837
479.303986	1144.586914	20570.708984	2955.901611	9.324120
479.658325	1067.219238	20618.494141	2983.207764	9.799813
480.012634	1039.912964	20866.525391	2965.003662	9.709629
480.366913	1124.107300	21510.498047	3099.259277	9.688581
480.721130	1117.280762	21774.458984	3058.300049	9.396343
481.075317	1185.546387	22186.328125	3144.769775	9.329288
481.429474	1174.168701	23121.566406	3169.800537	9.092794
481.783569	1169.617676	23977.162109	3306.331787	9.368453
482.137604	1108.178589	25519.964844	3486.097900	9.740866
482.491669	1030.810913	27715.843750	3618.078125	9.695574
482.845612	1158.240112	30471.500000	3822.875000	9.090203
483.199554	1099.076538	34078.199219	4141.447754	9.225143
483.553436	1228.781250	39191.292969	4560.143555	8.775400
483.907318	1076.321289	46238.582031	5190.462891	9.109689
484.261139	1124.107300	52971.847656	6014.201660	9.431643
484.614899	1174.168701	56059.730469	6419.244141	9.556384
484.968628	1185.546387	56178.058594	6346.427734	9.384698
485.322357	1128.658325	54141.464844	6091.569336	9.361721
485.675964	1133.209351	50912.503906	5895.874512	9.567563
486.029572	1083.147949	47458.261719	5604.607910	9.749755
486.383148	1137.760376	44158.757813	5235.973145	9.526076
486.736694	1190.097412	42135.820313	5133.574707	9.630987
487.090149	1153.689087	41844.550781	4985.666016	9.417291
487.443604	1121.831787	42311.035156	4894.645020	9.159714
487.796997	1180.995239	43730.957031	5210.942871	9.471096
488.150360	1060.392700	45353.406250	5235.973145	9.427176
488.503693	1115.005249	45690.183594	5354.300293	9.510438
488.856964	1153.689087	45214.597656	5290.585938	9.389041
489.210175	1080.872437	43407.835938	4969.737305	9.187676
489.563416	1101.352051	41471.367188	4803.624512	9.170847
489.916565	1060.392700	39239.082031	4692.124023	9.512458
490.269653	1160.515625	36629.058594	4532.837402	9.507923
490.622772	1099.076538	35306.980469	4277.979004	9.292889
490.975769	1165.066650	35072.601563	4248.397461	9.093349
491.328735	1121.831787	36212.636719	4303.009766	9.065560
491.681732	1069.494751	38310.667969	4523.735352	9.275328
492.034607	1083.147949	39716.941406	4751.287598	9.494640
492.387482	1185.546387	40822.843750	4826.379395	9.185371
492.740326	1119.556274	40385.941406	4771.767090	9.301113
493.093079	1135.484863	38711.160156	4683.021973	9.441047
493.445862	1103.627563	35589.144531	4307.561035	9.290665
493.798523	1176.444214	33186.195313	4107.314941	9.156180
494.151215	1128.658325	30680.847656	3948.028564	9.540309
494.503815	1076.321289	28628.328125	3841.079102	10.034687
494.856384	1151.413574	27258.462891	3561.189941	9.230367
495.208923	1074.045776	25824.884766	3345.015625	9.175323
495.561432	1021.708862	24709.880859	3379.148438	9.951969
495.913879	1162.791138	24639.339844	3258.545898	8.927014
496.266296	1051.290649	24532.390625	3399.628174	10.000969
496.618683	1155.964600	24648.441406	3304.056152	9.143743
496.970978	1180.995239	25073.962891	3374.597412	9.180953
497.323273	1180.995239	24837.308594	3329.086914	9.080417
497.675507	1140.035889	25403.914063	3247.168213	8.684236
498.027710	1092.250000	25426.669922	3372.321777	9.369740
498.379852	1133.209351	25199.117188	3345.015625	9.190619
498.731995	1249.260864	25349.300781	3299.505127	8.507223
499.084076	1233.332275	24147.826172	3367.770752	9.314796
499.436096	1135.484863	24684.849609	3133.392090	8.483912
499.788086	1158.240112	23786.019531	3224.413086	9.131134
500.140106	1228.781250	23654.039063	3272.198975	9.112126
500.491943	1160.515625	22611.849609	3019.616211	8.666596
500.843842	1151.413574	22413.880859	3096.983887	9.150257
501.195679	1133.209351	22154.470703	2983.207764	8.800606
501.547455	1103.627563	21685.712891	3008.238525	9.253732
501.899231	1103.627563	21556.007813	3065.126465	9.590565
502.250885	1064.943726	21298.875000	2990.034424	9.514171
502.602600	1115.005249	20868.800781	3008.238525	9.584149
502.954193	1076.321289	21328.457031	3046.922363	9.730336
503.305786	1064.943726	21307.976563	2939.972900	9.262590
503.657379	1103.627563	21460.437500	2971.830078	9.177285
504.008820	1146.862427	20850.597656	3028.718262	9.550757
504.360291	1135.484863	21296.599609	3030.993652	9.401805
504.711700	1074.045776	21408.099609	2976.381104	9.355415
505.063080	1108.178589	21615.171875	2965.003662	9.054594
505.414368	1128.658325	21521.875000	3019.616211	9.272485
505.765656	1119.556274	21394.447266	3017.340576	9.360269
506.116943	1151.413574	21774.458984	3024.167236	9.080878
506.468109	1171.893188	21282.945313	2912.666504	8.655804
506.819305	1101.352051	21182.822266	2928.595215	9.099150
507.170410	1096.801025	20952.996094	3035.544678	9.763923
507.521484	1174.168701	21203.302734	2992.309814	9.077482
507.872559	1155.964600	21708.468750	2903.564453	8.503099
508.223480	1162.791138	21733.500000	2987.758789	8.871681
508.574493	1183.270874	21692.539063	3005.962891	8.887163
508.925385	1103.627563	22197.705078	3117.463379	9.546925
509.276245	1105.903076	22397.951172	3103.810303	9.383348
509.627045	1128.658325	22477.593750	2974.105713	8.644213
509.977814	1087.698975	22905.392578	3069.677490	9.084271
510.328613	1165.066650	22816.646484	3122.014648	9.038362
510.679260	1119.556274	23030.546875	3087.881836	8.983280
511.029999	1137.760376	23233.068359	3119.739014	8.970134
511.380585	1126.382813	23055.576172	3174.351563	9.339006
511.731140	1153.689087	23608.527344	3133.392090	8.816377
512.081726	1151.413574	23781.468750	3276.750000	9.391654
512.432129	1078.596802	24288.908203	3219.861816	9.225492
512.782654	1076.321289	23997.642578	3192.555664	9.232602
513.133057	1149.138062	24323.041016	3306.331787	9.308721
513.483398	1162.791138	23963.509766	3269.923340	9.241517
513.833801	1149.138062	24245.673828	3263.096924	9.152711
514.183960	1235.607788	23624.457031	3149.320801	8.547617
514.534302	1099.076538	23799.671875	3276.750000	9.593023
514.884460	1105.903076	23524.333984	3151.596191	9.125051
515.234619	1085.423462	23360.496094	3142.494141	9.234856
515.584717	1076.321289	23663.140625	3256.270264	9.651421
515.934753	1110.454102	23610.804688	3370.046387	10.042476
516.284851	1108.178589	23558.466797	3213.035400	9.375634
516.634766	1089.974487	24161.480469	3345.015625	9.774138
516.984741	1069.494751	24311.664063	3226.688477	9.281379
517.334595	1067.219238	24819.105469	3317.709229	9.474995
517.684448	1158.240112	25633.742188	3240.341553	8.506880
518.034363	1039.912964	26398.316406	3449.689453	9.502871
518.384094	1142.311401	27431.402344	3558.914551	9.192417
518.733826	1171.893188	28783.062500	3595.322754	8.776990
519.083496	1085.423462	29151.697266	3693.170166	9.291389
519.433167	1126.382813	30034.599609	3740.956299	9.044395
519.782776	1149.138062	29845.730469	3743.231689	9.039727
520.132324	1105.903076	29472.544922	3704.547852	9.160917
520.481873	1146.862427	28835.400391	3704.547852	9.237345
520.831299	1130.933838	28207.355469	3709.098877	9.521809
521.180786	1094.525513	27611.169922	3618.078125	9.516863
521.530151	1085.423462	26832.941406	3631.731201	9.889526
521.879517	1167.342163	26209.449219	3647.659912	9.904590
522.228882	1087.698975	26798.808594	3568.016602	9.646872
522.578064	1167.342163	26188.968750	3552.087891	9.530738
522.927307	1144.586914	26498.439453	3517.955078	9.360977
523.276489	1055.841675	26211.724609	3451.965088	9.525103
523.625610	1069.494751	26625.869141	3445.138428	9.295698
523.974792	1146.862427	27244.810547	3552.087891	9.216148
524.323792	1119.556274	26987.675781	3622.629150	9.676284
524.672852	1130.933838	27533.800781	3606.700439	9.376885
525.021790	1083.147949	28635.154297	3668.139648	9.382227
525.370728	1092.250000	29734.230469	3966.232666	10.034162
525.719604	1171.893188	31470.453125	3986.712402	9.290274
526.068420	1171.893188	33006.429688	4107.314941	9.220872
526.417297	1165.066650	34314.855469	4266.601563	9.356123
526.765991	1037.637451	35332.011719	4478.225098	10.032513
527.114746	1083.147949	36481.148438	4373.550781	9.295448
527.463379	1146.862427	38099.042969	4664.817871	9.520292
527.812012	1155.964600	40194.800781	4855.961426	9.477734
528.160706	1155.964600	43064.230469	5317.892090	9.931043
528.509155	1180.995239	47123.761719	5636.464844	9.697870
528.857727	1151.413574	52205.000000	5975.517578	9.449100
529.206177	1140.035889	55520.433594	6460.203613	9.783246
529.554565	1076.321289	56421.539063	6651.347168	10.073184
529.902893	1135.484863	55429.410156	6469.305664	9.823974
530.251221	1080.872437	53292.695313	6291.814941	9.980388
530.599548	1112.729614	49820.253906	5786.649414	9.595889
530.947876	1142.311401	46748.300781	5490.831543	9.534976
531.296021	1142.311401	43280.406250	5274.657227	9.806675
531.644165	1194.648438	40602.117188	4824.104004	9.210071
531.992249	1103.627563	38679.300781	4623.858398	9.368378
532.340454	1121.831787	37277.582031	4564.694824	9.522311
532.688354	1149.138062	36927.152344	4592.000977	9.622845
533.036438	1117.280762	38023.953125	4635.235840	9.532030
533.384338	1201.474976	39753.347656	4906.022949	9.609256
533.732239	1053.566162	41334.835938	5151.779297	10.173991
534.080139	1219.679199	42292.828125	5101.717773	9.451524
534.427917	1133.209351	41801.316406	5024.350098	9.568040
534.775757	1128.658325	40153.839844	5022.074219	9.976677
535.123474	1178.719727	38340.250000	4755.838379	9.625865
535.471191	1185.546387	36497.078125	4662.541992	9.846629
535.818848	1194.648438	35627.828125	4487.327148	9.562517
536.166382	1071.770264	34335.332031	4384.928711	9.960323
536.513977	1044.463989	34048.617188	4405.408203	10.183398
536.861511	1162.791138	34137.363281	4428.163574	9.902699
537.208984	1051.290649	34396.773438	4487.327148	10.304354
537.556396	1185.546387	33971.250000	4423.612305	9.876457
537.903809	1105.903076	33286.316406	4457.745117	10.415783
538.251160	1149.138062	32298.742188	4136.896973	9.591643
538.598389	1176.444214	31688.902344	4050.427002	9.419047
538.945740	1085.423462	30273.529297	4018.569824	10.049116
539.292969	1135.484863	29722.853516	3993.539063	9.997612
539.640137	1076.321289	29379.250000	4054.978027	10.524199
539.987244	1133.209351	29527.158203	4009.467773	10.129828
540.334351	1119.556274	30134.722656	4075.457764	10.187436
540.681458	1080.872437	31845.914063	4296.183105	10.451182
541.028442	1185.546387	34210.179688	4635.235840	10.445807
541.375366	1194.648438	37277.582031	4749.011719	9.850538
541.722290	1137.760376	40238.035156	5092.615723	10.114649
542.069153	1124.107300	43157.527344	5370.229004	10.101775
542.416016	1140.035889	42868.535156	5390.708984	10.186498
542.762756	1094.525513	42276.902344	5283.759277	10.172395
543.109558	1126.382813	40920.691406	5197.289551	10.229872
543.456299	1105.903076	39582.683594	5019.798828	10.172097
543.802917	1060.392700	38246.953125	5038.002930	10.696366
544.149536	1078.596802	36767.863281	4855.961426	10.584036
544.496094	1174.168701	34230.660156	4657.991211	10.538997
544.842651	1099.076538	32988.226563	4485.051270	10.617951
545.189148	1044.463989	31199.666016	4262.050293	10.670088
545.535583	1105.903076	29854.832031	4041.324951	10.210544
545.882019	1126.382813	29354.218750	3968.508301	10.068521
546.228333	1124.107300	28368.917969	4068.631104	10.807651
546.574707	1130.933838	28441.734375	3938.926514	10.281620
546.920898	1155.964600	28580.541016	4016.294189	10.429804
547.267212	1142.311401	28548.683594	3948.028564	10.237463
547.613342	1119.556274	28484.968750	4014.018799	10.577084
547.959473	1153.689087	27831.894531	3966.232666	10.542477
548.305664	1103.627563	27099.177734	3861.558838	10.609243
548.651611	1087.698975	26446.103516	3920.722412	11.171931
548.997742	1126.382813	25563.201172	3845.630127	11.127666
549.343689	1235.607788	24090.939453	3656.761963	10.593390
549.689575	1105.903076	23572.119141	3568.016602	10.959182
550.035522	1133.209351	22930.423828	3285.852051	9.875769
550.381287	1074.045776	21835.898438	3395.077148	11.179307
550.727173	1144.586914	21517.324219	3385.974854	11.001898
551.072876	1078.596802	21048.568359	3502.026611	12.135369
551.418640	1144.586914	21046.291016	3399.628174	11.330895
551.764282	1099.076538	20652.626953	3276.750000	11.136971
552.109863	1142.311401	20684.484375	3274.474365	10.910573
552.455505	1121.831787	20916.587891	3436.036377	11.690998
552.801025	1105.903076	20816.464844	3411.005615	11.694757
553.146545	1146.862427	21205.578125	3502.026611	11.741351
553.491943	1169.617676	21451.333984	3456.516113	11.275665
553.837341	1105.903076	21485.466797	3506.577637	11.779813
554.182800	1192.372925	21210.128906	3447.414063	11.265203
554.528015	1108.178589	21025.812500	3506.577637	12.041585
554.873352	1126.382813	20516.095703	3449.689453	11.982162
555.218628	1137.760376	20395.492188	3561.189941	12.584190
555.563721	1117.280762	20147.460938	3329.086914	11.622623
555.908875	1137.760376	19967.695313	3304.056152	11.504532
556.254028	1174.168701	19578.580078	3420.107666	12.203264
556.599121	1071.770264	19239.529297	3454.240479	13.113726
556.944031	1226.505737	19230.425781	3372.321777	11.918604
557.289063	1133.209351	18889.097656	3445.138428	13.020634
557.633972	1135.484863	18900.476563	3454.240479	13.052387
557.978882	1192.372925	18684.300781	3397.352539	12.605698
558.323792	1128.658325	18613.759766	3313.158203	12.493493
558.668518	1089.974487	18247.400391	3315.433838	12.970824
559.013306	1171.893188	18381.656250	3310.882813	12.428931
559.358032	1174.168701	18408.962891	3374.597412	12.767363
559.702637	1135.484863	18286.085938	3467.893799	13.599575
560.047363	1185.546387	18354.351563	3488.373291	13.412855
560.391846	1067.219238	18331.595703	3481.546875	13.984447
560.736450	1103.627563	18085.839844	3454.240479	13.841617
561.080933	1144.586914	18281.533203	3467.893799	13.557299
561.425354	1119.556274	18042.603516	3513.404053	14.145489
561.769775	1155.964600	18431.718750	3490.648926	13.514225
562.114136	1117.280762	18577.351563	3577.118652	14.088362
562.458496	1142.311401	18684.300781	3681.792725	14.476586
562.802673	1174.168701	18695.679688	3715.925537	14.506493
563.146912	1128.658325	18506.810547	3561.189941	13.997643
563.491150	1126.382813	18074.460938	3670.415039	15.010741
563.835266	1089.974487	18276.982422	3620.353516	14.722626
564.179443	1076.321289	18261.054688	3604.425049	14.711334
564.523438	1060.392700	18361.177734	3634.006836	14.875708
564.867493	1064.943726	18324.769531	3786.466553	15.767962
565.211426	1049.015137	18402.136719	3695.445801	15.250460
565.555359	1115.005249	18757.117188	3784.191162	15.129629
565.899231	1133.209351	19014.251953	3952.579590	15.767369
566.243042	1108.178589	19412.468750	4102.764160	16.360020
566.586914	1121.831787	20101.951172	4105.039551	15.717540
566.930603	1151.413574	20329.501953	4282.530273	16.326532
567.274292	1178.719727	20488.789063	4353.071289	16.438841
567.617981	1108.178589	20543.402344	4350.795898	16.684229
567.961609	1112.729614	20354.533203	4353.071289	16.840115
568.305237	1187.821899	19815.234375	4266.601563	16.528221
568.648682	1155.964600	19694.632813	4296.183105	16.938749
568.992188	1092.250000	19665.050781	4355.346680	17.569221
569.335632	1119.556274	19109.824219	4334.867188	17.872503
569.679016	1080.872437	19077.966797	4273.428223	17.739285
570.022461	1064.943726	18861.791016	4246.121582	17.874950
570.365662	1112.729614	19125.751953	4391.755371	18.203642
570.708984	1030.810913	18968.742188	4398.581543	18.774576
571.052185	1089.974487	19105.273438	4348.520020	18.087656
571.395386	1115.005249	19050.660156	4546.490723	19.132200
571.738525	1117.280762	19389.712891	4544.214844	18.754669
572.081604	1180.995239	19935.837891	4644.337891	18.466393
572.424683	1121.831787	20563.880859	4855.961426	19.206461
572.767578	1201.474976	20716.341797	4994.768066	19.437965
573.110596	1176.444214	20566.156250	4967.461914	19.551695
573.453552	1155.964600	20331.779297	5035.727539	20.232584
573.796387	1146.862427	20379.564453	5008.421387	20.078091
574.139282	1192.372925	20088.296875	4871.890137	19.472544
574.481995	1080.872437	20097.400391	4962.910645	20.414022
574.824768	1089.974487	20086.021484	5094.891113	21.082895
575.167480	1112.729614	20004.103516	5149.503418	21.368345
575.510132	1137.760376	19564.927734	4965.186523	20.770561
575.852722	1110.454102	19749.244141	5047.104980	21.120745
576.195251	1167.342163	19558.101563	5144.952637	21.628309
576.537842	1108.178589	19214.498047	5069.860352	21.880104
576.880188	1130.933838	18980.119141	5081.237793	22.131565
577.222717	1183.270874	18534.117188	4990.217285	21.940985
577.565063	1062.668213	18386.208984	4940.155762	22.382765
577.907410	1146.862427	18295.187500	4921.951660	22.014334
578.249756	1144.586914	17689.898438	4696.674805	21.468847
578.591919	1169.617676	17419.111328	4737.634277	21.957708
578.934204	1130.933838	16898.017578	4689.848145	22.571798
579.276306	1089.974487	16588.546875	4662.541992	23.050945
579.618469	1140.035889	16265.422852	4576.072266	22.717014
579.960571	1219.679199	16269.973633	4680.746094	22.996672
580.302551	1215.128052	15685.165039	4585.174316	23.289825
580.644531	1160.515625	15933.196289	4548.766113	22.935923
580.986511	1137.760376	15694.266602	4580.623535	23.651714
581.328369	1096.801025	15407.551758	4485.051270	23.676258
581.670227	1206.026001	15250.540039	4400.857422	22.747898
582.012024	1108.178589	15098.080078	4603.378418	24.983734
582.353821	1126.382813	15077.600586	4462.296387	23.911272
582.695496	1112.729614	14902.385742	4473.673828	24.372938
583.037231	1064.943726	14854.599609	4498.704590	24.900990
583.378845	1080.872437	15027.539063	4569.245605	25.012234
583.720398	1128.658325	14925.140625	4466.847168	24.195942
584.062012	1060.392700	14520.098633	4498.704590	25.545223
584.403442	1044.463989	14622.497070	4507.806641	25.506954
584.744934	1117.280762	14640.701172	4592.000977	25.694094
585.086365	1085.423462	14488.241211	4516.908691	25.602716
585.427734	1135.484863	14845.498047	4503.255859	24.564316
585.768982	1135.484863	14590.639648	4485.051270	24.894299
586.110291	1149.138062	14440.455078	4539.664063	25.509329
586.451599	1167.342163	14160.566406	4562.419434	26.129597
586.792725	1108.178589	14638.425781	4648.889160	26.168854
587.133850	1142.311401	14456.383789	4530.562012	25.448641
587.474915	1105.903076	14392.668945	4480.500488	25.398186
587.815979	1162.791138	14583.812500	4539.664063	25.161074
588.157043	1137.760376	14419.975586	4680.746094	26.674662
588.497925	1124.107300	14558.782227	4651.164551	26.253387
588.838867	1135.484863	14567.883789	4635.235840	26.054550
589.179749	1028.535400	14884.181641	4767.216309	26.983086
589.520569	1174.168701	14668.006836	4878.716797	27.453629
589.861450	1055.841675	15025.263672	4712.603516	26.176901
590.202087	1074.045776	15016.162109	4755.838379	26.407701
590.542847	1110.454102	14879.630859	4776.318359	26.623699
590.883484	1053.566162	15118.560547	4940.155762	27.633070
591.224121	1128.658325	15070.774414	4878.716797	26.897341
591.564636	1140.035889	14982.029297	4710.328125	25.793194
591.905151	1128.658325	14870.528320	4683.021973	25.865211
592.245667	1128.658325	14886.457031	4792.246582	26.629175
592.585999	1142.311401	14731.721680	4755.838379	26.590755
592.926453	1085.423462	14572.435547	4698.950684	26.792646
593.266724	1112.729614	14768.129883	4762.665039	26.728880
593.607056	1135.484863	14495.067383	4737.634277	26.963039
593.947388	1130.933838	14636.149414	4696.674805	26.402695
594.287476	1160.515625	14690.762695	4783.144531	26.774300
594.627686	1142.311401	14820.466797	4924.227051	27.649309
594.967773	1201.474976	15230.060547	4981.115234	26.942417
595.307861	1112.729614	15302.876953	5001.594727	27.405390
595.647888	1128.658325	14977.477539	5074.411621	28.491623
595.987854	1085.423462	15439.408203	4962.910645	27.013317
596.327820	1128.658325	15582.766602	5019.798828	26.920654
596.667725	1101.352051	16076.554688	5081.237793	26.576506
597.007568	1142.311401	16638.607422	5233.697754	26.402349
597.347351	1146.862427	16995.865234	5336.096191	26.432161
597.687073	1069.494751	17357.671875	5504.484863	27.228279
598.026794	1067.219238	17284.855469	5538.617676	27.571209
598.366455	1149.138062	16879.812500	5381.606934	26.905830
598.706116	1121.831787	16597.648438	5240.524414	26.613733
599.045654	1117.280762	16072.003906	5192.738281	27.251976
599.385193	1112.729614	15373.418945	5001.594727	27.269827
599.724731	1137.760376	15220.958984	4803.624512	26.030056
600.064087	1146.862427	14663.456055	4785.420410	26.919193
600.403564	1124.107300	14344.882813	4742.185547	27.366611
600.742920	1126.382813	14297.097656	4507.806641	25.673807
601.082153	1128.658325	13801.033203	4544.214844	26.952774
601.421387	1087.698975	14024.035156	4664.817871	27.651716
601.760620	1151.413574	14096.851563	4566.970215	26.384251
602.099854	1158.240112	14137.810547	4694.399414	27.244040
602.438843	1142.311401	13700.911133	4655.715332	27.976080
602.778015	1115.005249	14008.106445	4560.143555	26.720787
603.117065	1133.209351	14506.445313	4667.093262	26.425045
603.456055	1160.515625	14658.905273	4860.512207	27.410652
603.794983	1055.841675	15182.274414	4787.695801	26.417526
604.133850	1115.005249	15739.777344	5063.033691	26.995485
604.472778	1110.454102	16188.054688	5154.054688	26.818594
604.811584	1105.903076	16713.701172	5349.749512	27.190554
605.150330	1112.729614	17410.009766	5374.780273	26.151915
605.489075	1128.658325	17257.548828	5326.994141	26.029911
605.827698	1128.658325	17321.263672	5443.045898	26.644184
606.166382	1071.770264	17027.722656	5342.922852	26.768394
606.504883	1165.066650	16841.128906	5538.617676	27.899549
606.843445	1135.484863	16194.881836	5208.666992	27.047445
607.181946	1103.627563	15719.297852	5156.330078	27.728477
607.520386	1158.240112	15391.623047	4926.502441	26.474817
607.858826	1108.178589	14891.007813	4815.001953	26.894503
608.197083	1194.648438	14595.190430	4794.522461	26.863646
608.535461	1121.831787	14401.771484	4626.133789	26.387936
608.873718	1074.045776	14174.218750	4603.378418	26.941114
609.211914	1096.801025	14356.260742	4637.511230	26.703276
609.550171	1078.596802	14909.211914	4817.277344	27.031919
609.888245	1119.556274	15207.305664	4739.909668	25.698595
610.226318	1160.515625	15566.837891	4935.604492	26.204390
610.564392	1076.321289	15755.706055	5042.554199	27.019068
610.902344	1051.290649	15500.847656	4842.308105	26.236221
611.240295	1076.321289	15268.744141	4789.971191	26.166426
611.578247	1115.005249	15082.152344	4978.839355	27.663731
611.916138	1069.494751	14825.017578	4723.980957	26.567411
612.253845	1133.209351	14099.126953	4607.929688	26.798876
612.591675	1140.035889	13907.983398	4482.775879	26.180716
612.929382	1067.219238	13787.380859	4464.571777	26.708406
613.267090	1083.147949	13373.235352	4312.111816	26.272911
613.604736	1135.484863	13311.796875	4193.784668	25.116798
613.942261	1099.076538	13307.246094	4032.222900	24.026094
614.279785	1178.719727	13109.275391	4152.825684	24.928478
614.617310	1133.209351	12690.579102	4191.509277	26.461901
614.954712	1149.138062	12440.272461	4148.274414	26.561867
615.292175	1183.270874	12485.782227	3991.263428	24.843971
615.629517	1178.719727	12317.394531	4045.875977	25.740551
615.966797	1124.107300	12260.505859	4052.702637	26.297508
616.304138	1142.311401	12244.577148	3977.610352	25.538019
616.641296	1142.311401	12346.975586	3982.161377	25.345249
616.978516	1171.893188	12112.597656	3948.028564	25.374374
617.315552	1039.912964	12267.333008	3941.202148	25.841103
617.652771	1092.250000	12399.312500	4032.222900	26.001209
617.989685	1080.872437	12340.149414	4011.743164	26.030716
618.326721	1155.964600	12331.046875	3966.232666	25.147629
618.663696	1101.352051	12613.211914	3993.539063	25.123543
619.000549	1128.658325	12415.241211	4045.875977	25.846775
619.337463	1119.556274	12544.946289	3982.161377	25.054770
619.674194	1128.658325	12397.037109	3918.446777	24.757675
620.010986	1121.831787	12101.219727	3895.691650	25.264250
620.347778	1094.525513	11846.361328	3868.385254	25.798941
620.684387	1092.250000	12060.259766	3811.497314	24.792532
621.020996	1199.199463	12071.637695	3759.160400	23.545416
621.357605	1158.240112	11948.759766	3922.997803	25.622101
621.694214	1064.943726	11928.280273	3852.456787	25.659824
622.030579	1144.586914	11896.422852	3743.231689	24.169312
622.367065	1133.209351	11844.085938	3907.069336	25.897598
622.703430	1155.964600	11857.739258	3868.385254	25.345522
623.039795	1110.454102	11646.115234	3709.098877	24.665228
623.376160	1087.698975	11618.809570	3818.323975	25.929127
623.712402	1085.423462	11737.136719	3649.935303	24.076050
624.048645	1121.831787	11664.319336	3754.609375	24.973021
624.384766	1080.872437	11575.574219	3743.231689	25.368603
624.720886	1171.893188	11730.309570	3843.354736	25.301725
625.057007	1117.280762	11432.216797	3745.507324	25.479816
625.392944	1137.760376	11673.421875	3793.293213	25.205183
625.729004	1076.321289	11611.982422	3786.466553	25.723543
626.064941	1101.352051	11980.617188	3736.405273	24.220875
626.400818	1069.494751	12299.189453	3866.109863	24.903751
626.736633	1140.035889	12301.465820	3763.711426	23.506626
627.072449	1128.658325	12635.966797	3941.202148	24.441370
627.408264	1085.423462	12510.813477	3859.283203	24.278032
627.743896	1069.494751	12706.507813	3936.650879	24.638250
628.079590	1083.147949	12642.793945	3834.252441	23.799210
628.415161	1080.872437	12736.089844	3852.456787	23.779774
628.750793	1105.903076	12544.946289	3902.518066	24.447981
629.086365	1115.005249	12246.852539	3761.435791	23.773508
629.421753	1087.698975	12412.965820	3884.313965	24.693590
629.757263	1094.525513	12037.504883	3752.333740	24.287792
630.092651	1101.352051	11951.035156	3652.210938	23.510906
630.427917	1096.801025	11750.789063	3577.118652	23.280649
630.763184	1124.107300	11388.981445	3695.445801	25.049877
631.098511	1215.128052	11350.297852	3522.506104	22.766050
631.433716	1128.658325	11125.021484	3577.118652	24.493511
631.768799	1074.045776	10861.060547	3451.965088	24.296679
632.103943	1117.280762	10904.295898	3531.608398	24.668680
632.438965	1176.444214	10972.561523	3351.842041	22.206738
632.773987	1176.444214	10922.500000	3502.026611	23.861782
633.109070	1206.026001	10735.907227	3244.892578	21.394461
633.443848	1092.250000	10849.683594	3315.433838	22.784513
633.778870	1135.484863	10669.916992	3440.587402	24.176613
634.113708	1149.138062	10619.855469	3356.393066	23.306099
634.448425	1167.342163	10599.375977	3426.934326	23.956573
634.783264	1128.658325	10908.846680	3458.791504	23.825035
635.117859	1146.862427	10724.529297	3331.362549	22.808268
635.452576	1108.178589	10904.295898	3376.872803	23.159119
635.787170	1083.147949	10902.020508	3388.250488	23.476244
636.121704	1069.494751	10405.957031	3395.077148	24.908606
636.456177	1135.484863	10299.006836	3306.331787	23.690094
636.790588	1140.035889	10005.464844	3240.341553	23.690966
637.125122	1089.974487	10314.935547	3310.882813	24.074987
637.459412	1169.617676	10089.659180	3185.729004	22.602041
637.793762	1140.035889	9893.964844	3178.902588	23.290876
638.128052	1089.974487	9818.872070	3194.831299	24.113663
638.462280	1133.209351	9843.903320	3178.902588	23.484846
638.796509	1149.138062	9727.851563	3147.045166	23.289122
639.130615	1112.729614	9554.912109	3065.126465	23.126684
639.464722	1130.933838	9573.116211	2937.697266	21.401615
639.798767	1124.107300	9550.360352	3051.473389	22.873346
640.132751	1174.168701	9322.808594	3092.432861	23.540913
640.466736	1110.454102	9381.972656	2999.136475	22.833563
640.800598	1124.107300	9554.912109	3092.432861	23.346828
641.134521	1176.444214	9115.736328	2901.289063	21.725424
641.468262	1085.423462	9193.104492	2974.105713	23.294975
641.802063	1074.045776	9081.603516	2951.350586	23.444162
642.135803	1149.138062	8908.664063	2896.738037	22.521994
642.469421	1112.729614	9115.736328	2807.992676	21.182827
642.803101	1155.964600	9017.888672	2965.003662	23.010132
643.136658	1162.791138	8863.153320	2933.146240	22.990543
643.470215	1140.035889	8920.041992	2903.564453	22.667446
643.803711	1128.658325	8872.255859	2905.840088	22.950336
644.137085	1128.658325	8958.725586	2828.472412	21.708805
644.470581	1140.035889	8635.601563	2810.268311	22.282942
644.803833	1135.484863	8706.142578	2767.033203	21.550945
645.137207	1121.831787	8915.490234	2771.584229	21.167883
645.470459	1151.413574	8612.846680	2776.135498	21.774931
645.803589	1169.617676	8667.458984	2880.809326	22.822458
646.136780	1174.168701	8731.172852	2846.676514	22.131889
646.469849	1151.413574	8831.295898	2903.564453	22.814814
646.802979	1126.382813	8712.968750	2812.543701	22.225555
647.135986	1126.382813	8619.672852	2762.482178	21.834192
647.468994	1155.964600	8940.521484	2942.248291	22.946505
647.801941	1126.382813	8858.602539	2753.380127	21.041788
648.134766	1108.178589	8967.827148	2755.655762	20.961206
648.467651	1158.240112	8817.643555	2912.666504	22.905523
648.800354	1153.689087	8947.347656	2860.329590	21.897810
649.133179	1180.995239	8778.958984	2794.339600	21.233904
649.465881	1128.658325	8813.091797	2860.329590	22.534794
649.798462	1089.974487	8920.041992	2807.992676	21.941296
650.131104	1119.556274	8833.571289	2723.798340	20.796459
650.463623	1103.627563	8765.305664	2828.472412	22.512625
650.796143	1133.209351	8833.571289	2767.033203	21.217495
651.128662	1089.974487	8765.305664	2707.869873	21.079161
651.461060	1108.178589	8738.000000	2726.073975	21.204893
651.793396	1112.729614	8904.113281	2744.278076	20.940420
652.125732	1105.903076	8744.826172	2705.594238	20.941319
652.458008	1085.423462	8788.061523	2757.931152	21.713440
652.790222	1201.474976	8983.755859	2694.216553	19.181286
653.122437	1119.556274	8633.326172	2735.176025	21.502119
653.454529	1117.280762	8608.294922	2664.634766	20.656136
653.786621	1103.627563	8562.785156	2742.002686	21.964613
654.118713	1117.280762	8626.499023	2644.155273	20.333336
654.450623	1144.586914	8512.723633	2762.482178	21.957998
654.782654	1146.862427	8437.630859	2680.563477	21.036205
655.114502	1115.005249	8508.171875	2732.900391	21.883656
655.446350	1146.862427	8410.325195	2726.073975	21.741856
655.778198	1112.729614	8526.375977	2682.839111	21.178640
656.109863	1130.933838	8285.170898	2735.176025	22.423664
656.441650	1060.392700	8405.773438	2578.165039	20.662949
656.773254	1124.107300	8155.466797	2676.012451	22.071198
657.104919	1133.209351	8212.354492	2660.083740	21.568626
657.436462	1105.903076	8144.088867	2635.052979	21.726479
657.767944	1078.596802	8487.692383	2678.288086	21.590912
658.099548	1078.596802	8626.499023	2650.981689	20.832077
658.430908	1135.484863	8428.529297	2753.380127	22.184086
658.762268	1064.943726	8740.275391	2660.083740	20.782686
659.093628	1137.760376	8701.591797	2605.471436	19.404333
659.424927	1096.801025	9143.042969	2810.268311	21.295248
659.756226	1126.382813	9682.340820	2839.849854	20.026594
660.087341	1112.729614	9721.024414	2871.707275	20.433519
660.418518	1176.444214	9889.413086	2974.105713	20.632021
660.749573	1105.903076	9791.566406	2846.676514	20.041918
661.080627	1165.066650	9641.381836	2978.656738	21.395971
661.411621	1060.392700	9509.401367	2885.360352	21.599785
661.742554	1051.290649	9529.880859	2810.268311	20.746111
662.073547	1160.515625	9179.451172	2803.441650	20.488081
662.404297	1101.352051	9006.511719	2676.012451	19.919401
662.735229	1142.311401	8728.897461	2705.594238	20.605881
663.065979	1067.219238	8612.846680	2776.135498	22.647768
663.396667	1160.515625	8505.896484	2523.552490	18.556381
663.727417	1128.658325	8346.610352	2596.369141	20.334171
664.057922	1151.413574	8134.986816	2591.818115	20.625610
664.388611	1155.964600	8107.680664	2534.930176	19.836334
664.719116	1183.270874	7941.567383	2466.664551	18.989899
665.049622	1146.862427	7805.036133	2557.685303	21.189337
665.380005	1094.525513	7734.495117	2541.756836	21.795752
665.710388	1133.209351	7741.321777	2493.970703	20.592285
666.040771	1153.689087	7780.005859	2448.460449	19.539835
666.371033	1119.556274	7836.893555	2575.889648	21.680218
666.701294	1140.035889	7663.954102	2489.419678	20.683641
667.031555	1115.005249	7707.188965	2425.705078	19.882635
667.361633	1180.995239	7695.811523	2505.348389	20.328327
667.691772	1101.352051	7613.892578	2537.205811	22.047522
668.021790	1160.515625	7704.913574	2437.082764	19.506258
668.351807	1108.178589	7627.545898	2480.317627	21.047119
668.681763	1105.903076	7577.484375	2380.194824	19.690578
669.011719	1083.147949	7725.393066	2448.460449	20.554985
669.341614	1089.974487	7629.821289	2464.388916	21.016005
669.671387	1142.311401	7622.994629	2352.888428	18.679775
670.001221	1060.392700	7766.352539	2425.705078	20.359686
670.330933	1133.209351	7780.005859	2352.888428	18.349878
670.660583	1055.841675	7907.434570	2296.000488	18.100300
670.990173	1119.556274	7711.740234	2368.817139	18.950636
671.319763	1105.903076	7588.861816	2377.919189	19.620918
671.649292	1162.791138	7597.963867	2277.796387	17.326733
671.978821	1146.862427	7295.319824	2387.021240	20.170242
672.308289	1124.107300	7415.922363	2382.470215	19.999998
672.637695	1149.138062	7370.412109	2298.276123	18.471106
672.966980	1185.546387	7261.187012	2446.184814	20.749062
673.296326	1206.026001	7224.778320	2396.123291	19.773155
673.625610	1140.035889	7329.452637	2341.510986	19.411766
673.954773	1155.964600	7347.656738	2396.123291	20.029398
674.283936	1115.005249	7106.451660	2291.449463	19.635397
674.613037	1069.494751	7286.217773	2282.347412	19.509518
674.942078	1162.791138	7186.094727	2316.480225	19.153759
675.271118	1158.240112	7154.237305	2248.214600	18.178370
675.600098	1130.933838	7085.971680	2336.959961	20.252199
675.928955	1096.801025	7161.063965	2375.643799	21.088182
676.257813	1108.178589	6963.093750	2255.041016	19.588028
676.586670	1049.015137	6974.471191	2350.613037	21.966206
676.915466	1126.382813	6965.369141	2200.428711	18.394390
677.244141	1126.382813	6985.848633	2311.929199	20.233011
677.572876	1151.413574	6833.389160	2293.724854	20.104122
677.901489	1121.831787	6676.377930	2220.908203	19.786972
678.230042	1051.290649	6988.124512	2252.765625	20.237638
678.558594	1140.035889	7017.706055	2348.337402	20.557491
678.887085	1210.577026	6967.644531	2384.745850	20.395260
679.215515	1092.250000	6953.991699	2239.112549	19.565218
679.543945	1155.964600	7076.869629	2298.276123	19.292852
679.872253	1142.311401	7288.493164	2352.888428	19.696407
680.200562	1112.729614	7347.656738	2282.347412	18.759125
680.528809	1128.658325	7538.800293	2332.408936	18.778845
680.856995	1137.760376	7511.494141	2407.500977	19.921455
681.185120	1092.250000	7597.963867	2443.909424	20.776497
681.513306	1115.005249	7657.127441	2387.021240	19.443478
681.841309	1069.494751	7757.250488	2400.674561	19.904732
682.169373	1085.423462	7845.995605	2334.684326	18.478626
682.497314	1112.729614	7725.393066	2366.541748	18.960773
682.825134	1124.107300	7434.126465	2382.470215	19.942299
683.153076	1126.382813	7620.719238	2409.776611	19.761738
683.480896	1099.076538	7406.820313	2227.734863	17.893219
683.808655	1051.290649	7409.095703	2396.123291	21.152468
684.136414	1140.035889	7306.697266	2214.081787	17.416977
684.464050	1046.739624	7254.360352	2252.765625	19.428152
684.791626	1112.729614	7097.349609	2175.397949	17.756655
685.119263	1105.903076	6837.939941	2250.489990	19.968239
685.446838	1121.831787	6853.868652	2218.632813	19.134577
685.774292	1196.923950	6553.500000	2120.785400	17.247238
686.101685	1124.107300	6599.010254	2195.877686	19.576063
686.429077	1155.964600	6614.938965	2195.877686	19.049604
686.756348	1124.107300	6539.846680	2220.908203	20.252100
687.083679	1094.525513	6492.061035	2118.509766	18.971329
687.410950	1078.596802	6635.418457	2204.979736	20.270273
687.738159	1190.097412	6655.898438	2234.561523	19.109077
688.065308	1085.423462	6589.908203	2230.010498	20.793718
688.392395	1044.463989	6783.327637	2191.326416	19.984137
688.719421	1042.188477	6676.377930	2168.571289	19.991922
689.046448	1190.097412	6837.939941	2223.183838	18.291700
689.373413	1133.209351	6767.398926	2259.592041	19.991920
689.700317	1149.138062	6639.969727	2166.295898	18.524660
690.027100	1137.760376	6662.725098	2227.734863	19.728170
690.353943	1133.209351	6626.316406	2159.469238	18.682686
690.680725	1183.270874	6403.315430	2107.132324	17.698345
691.007446	1055.841675	6378.284668	2100.305664	19.623772
691.334106	1096.801025	6353.253906	2179.948975	20.606062
691.660645	1162.791138	6146.181641	2198.153076	20.776255
691.987244	1117.280762	6077.916016	2120.785400	20.229357
692.313721	1124.107300	5984.619629	2116.234375	20.411985
692.640259	1144.586914	6109.773438	2084.376953	18.927588
692.966675	1103.627563	6023.303711	2041.142212	19.056429
693.293030	1092.250000	5838.986328	2061.621826	20.421860
693.619324	1130.933838	5989.170898	2154.918213	21.077282
693.945618	1103.627563	5829.884277	2086.652588	20.799231
694.271851	1101.352051	5709.281738	2018.386963	19.901236
694.598083	1171.893188	5757.067871	2070.723877	19.602976
694.924194	1115.005249	5920.905273	1988.805176	18.181816
695.250244	1115.005249	5679.699707	2011.560425	19.641079
695.576294	1121.831787	5752.516602	2086.652588	20.835382
695.902283	1174.168701	5713.832520	2107.132324	20.551380
696.228210	1049.015137	5864.017090	2050.244141	20.793947
696.554138	1144.586914	5784.374023	2041.142212	19.323198
696.879944	1130.933838	5727.485840	2038.866699	19.752478
697.205750	1169.617676	5707.006348	2009.284912	18.505518
697.531433	1183.270874	5889.047852	2034.315552	18.085104
697.857178	1126.382813	5882.221191	2032.040039	19.043062
698.182739	1137.760376	6068.813965	2182.224365	21.181355
698.508423	1126.382813	6360.080566	2186.775391	20.260868
698.833984	1171.893188	6328.223145	2211.806152	20.167696
699.159485	1115.005249	6726.439453	2268.694336	20.559612
699.484924	1149.138062	7045.012207	2318.755615	19.837900
699.810303	1158.240112	7060.940918	2311.929199	19.545105
700.135681	1174.168701	7302.146484	2357.439453	19.309319
700.460999	1135.484863	7447.779785	2286.898438	18.240808
700.786255	1151.413574	7065.492188	2371.092773	20.623318
701.111450	1137.760376	6869.797363	2266.418701	19.690353
701.436646	1101.352051	6735.541504	2273.245361	20.799679
701.761719	1108.178589	6539.846680	2138.989502	18.977797
702.086792	1121.831787	6385.111328	2177.673340	20.060526
702.411865	1094.525513	6084.742676	2045.693237	19.060648
702.736816	1085.423462	5848.088379	2138.989502	22.121355
703.061646	1083.147949	5788.924805	1970.601074	18.858801
703.386536	1112.729614	5743.414551	2038.866699	20.000002
703.711365	1099.076538	5458.974609	1995.631714	20.563673
704.036194	1133.209351	5420.290527	1977.427612	19.692146
704.360901	1094.525513	5324.718750	1975.152100	20.817644
704.685547	1044.463989	5377.055664	1909.161987	19.957985
705.010132	1167.342163	5235.973145	1959.223389	19.463089
705.334717	1119.556274	5179.085449	1913.713013	19.562778
705.659302	1103.627563	5135.850586	1922.815063	20.316027
705.983765	1078.596802	5110.819824	1991.080688	22.629797
706.308228	1171.893188	5076.687012	1961.498901	20.221443
706.632568	1076.321289	5110.819824	1877.304688	19.853357
706.956909	1201.474976	4906.022949	1863.651489	17.874691
707.281189	1119.556274	4946.982422	1952.396851	21.759808
707.605408	1144.586914	5222.320313	1877.304688	17.968752
707.929626	1140.035889	5049.380859	1845.447388	18.044237
708.253784	1140.035889	5038.002930	1925.090576	20.140106
708.577820	1192.372925	5028.900879	1943.294800	19.572956
708.901855	1080.872437	4987.941406	1852.273926	19.743740
709.225830	1162.791138	5035.727539	1870.478149	18.272621
709.549805	1124.107300	5142.677246	1872.753662	18.629671
709.873718	1128.658325	4967.461914	1888.682251	19.798458
710.197510	1128.658325	5090.339844	1941.019287	20.505459
710.521362	1171.893188	5181.360840	1890.957764	17.934166
710.845093	1062.668213	5229.146973	1886.406738	19.770617
711.168701	1142.311401	5217.769043	2002.458252	21.105528
711.492432	1212.852539	5254.177734	1915.988525	17.398649
711.816040	1126.382813	5468.076660	2025.213501	20.702305
712.139587	1105.903076	5468.076660	2007.009399	20.657276
712.463074	1117.280762	5452.147949	1966.049927	19.580050
712.786499	1137.760376	5454.423340	1977.427612	19.451767
713.109924	1137.760376	5311.065430	1966.049927	19.847328
713.433350	1158.240112	5367.953613	1972.876587	19.351353
713.756592	1087.698975	5388.433105	1915.988525	19.259258
714.079834	1062.668213	5290.585938	1972.876587	21.528524
714.403015	1055.841675	5249.626465	1893.233276	19.967443
714.726196	1094.525513	5292.861328	1959.223389	20.596205
715.049255	1083.147949	5190.462891	1879.580200	19.390581
715.372375	1105.903076	5081.237793	1929.641602	20.721237
715.695435	1133.209351	5108.544434	1831.794189	17.572981
716.018311	1092.250000	5076.687012	1904.610962	20.388350
716.341248	1099.076538	5022.074219	1913.713013	20.765663
716.664063	1119.556274	5092.615723	1981.978638	21.706757
716.987000	1146.862427	5158.605469	1936.468262	19.682364
717.309692	1149.138062	5060.758301	1922.815063	19.778940
717.632385	1117.280762	4915.125000	1941.019287	21.689634
717.955078	1108.178589	4944.706543	1941.019287	21.708189
718.277649	1174.168701	4926.502441	1856.824951	18.192844
718.600220	1049.015137	4855.961426	1895.508789	22.235502
718.922791	1115.005249	4787.695801	1902.335449	21.437424
719.245300	1165.066650	4767.216309	1856.824951	19.204041
719.567688	1092.250000	4576.072266	1836.345337	21.358591
719.890015	1087.698975	4630.685059	1870.478149	22.093769
720.212341	1140.035889	4569.245605	1813.590088	19.641674
720.534607	1178.719727	4487.327148	1761.253052	17.606602
720.856873	1117.280762	4439.541016	1770.355225	19.657536
721.179016	1167.342163	4421.336914	1749.875488	17.902098
721.501160	1076.321289	4318.938477	1804.488037	22.456142
721.823242	1135.484863	4273.428223	1770.355225	20.232054
722.145264	1146.862427	4246.121582	1699.814087	17.841413
722.467224	1162.791138	4205.162598	1690.711914	17.352278
722.789185	1149.138062	4241.570801	1708.916138	18.101545
723.111023	1140.035889	4186.958496	1747.599976	19.940254
723.432861	1137.760376	4134.621094	1695.262939	18.602884
723.754578	1151.413574	4243.846191	1777.181763	20.235468
724.076294	1119.556274	4280.254395	1790.834839	21.238300
724.397949	1078.596802	4241.570801	1620.170776	17.122301
724.719666	1174.168701	4095.937500	1777.181763	20.638630
725.041260	1119.556274	4120.968262	1715.742676	19.863531
725.362732	1055.841675	4086.835449	1756.702026	23.123121
725.684265	1130.933838	4227.917480	1672.507813	17.487144
726.005676	1149.138062	4091.386475	1706.640625	18.948181
726.327087	1092.250000	4089.110840	1761.253052	22.323462
726.648438	1069.494751	4102.764160	1688.436401	20.405100
726.969666	1117.280762	4091.386475	1661.130127	18.286148
727.290894	1119.556274	4091.386475	1788.559326	22.511484
727.612061	1194.648438	4111.866211	1745.324463	18.876755
727.933228	1137.760376	4145.999023	1770.355225	21.028744
728.254395	1119.556274	4287.081055	1749.875488	19.899424
728.575378	1124.107300	4280.254395	1772.630737	20.547949
728.896301	1192.372925	4380.377441	1811.314575	19.414705
729.217285	1180.995239	4391.755371	1795.385864	19.135363
729.538147	1146.862427	4355.346680	1865.927002	22.411346
729.858948	1155.964600	4430.438965	1806.763550	19.874914
730.179810	1151.413574	4407.683594	1831.794189	20.894478
730.500549	1153.689087	4225.642090	1877.304688	23.555555
730.821228	1117.280762	4305.285156	1813.590088	21.841541
731.141846	1176.444214	4371.275391	1758.977539	18.233620
731.462402	1137.760376	4425.888184	1831.794189	21.107264
731.782898	1096.801025	4532.837402	1868.202637	22.450333
732.103455	1158.240112	4430.438965	1799.937012	19.610573
732.423889	1105.903076	4412.234863	1811.314575	21.335169
732.744263	1096.801025	4473.673828	1779.457275	20.215633
733.064636	1140.035889	4334.867188	1927.366089	24.643873
733.384888	1128.658325	4403.132813	1895.508789	23.419039
733.705200	1117.280762	4337.142578	1733.946899	19.151945
734.025330	1096.801025	4478.225098	1813.590088	21.197845
734.345520	1167.342163	4396.306152	1777.181763	18.886541
734.665527	1089.974487	4428.163574	1827.243164	22.085888
734.985596	1085.423462	4296.183105	1849.998413	23.812899
735.305542	1133.209351	4205.162598	1754.426514	20.222221
735.625549	1103.627563	4271.152344	1754.426514	20.545977
735.945435	1105.903076	4293.907715	1790.834839	21.484653
736.265259	1190.097412	4123.243652	1713.467163	17.843288
736.585083	1135.484863	4066.355713	1704.365112	19.409939
736.904785	1112.729614	3982.161377	1756.702026	22.442507
737.224426	1112.729614	4061.804688	1713.467163	20.370371
737.544128	1135.484863	4025.396240	1736.222412	20.787403
737.863708	1153.689087	3907.069336	1831.794189	24.628094
738.183289	1121.831787	4023.120850	1645.201538	18.039215
738.502808	1094.525513	4016.294189	1765.804199	22.975080
738.822205	1074.045776	3959.406250	1790.834839	24.842272
739.141541	1142.311401	4029.947266	1806.763550	23.010248
739.460938	1112.729614	4027.671875	1774.906250	22.716629
739.780212	1142.311401	4066.355713	1765.804199	21.322960
740.099426	1128.658325	4277.979004	1690.711914	17.846819
740.418640	1026.259888	4020.845215	1824.967651	26.671730
740.737793	1078.596802	4086.835449	1781.732788	23.373676
741.056885	1130.933838	4123.243652	1784.008301	21.825094
741.375977	1105.903076	4100.488281	1784.008301	22.644379
741.694946	1060.392700	4039.049316	1790.834839	24.522535
742.013855	1140.035889	4080.008789	1768.079712	21.362232
742.332703	1146.862427	3922.997803	1731.671387	21.065578
742.651550	1119.556274	3909.344727	1852.273926	26.264271
742.970398	1162.791138	3913.895752	1695.262939	19.354837
743.289124	1117.280762	3831.977051	1708.916138	21.793797
743.607788	1108.178589	3825.150391	1813.590088	25.963152
743.926453	1119.556274	3802.395264	1758.977539	23.833755
744.245056	1128.658325	3777.364502	1690.711914	21.219931
744.563599	1144.586914	3884.313965	1779.457275	23.172760
744.882141	1108.178589	3715.925537	1715.742676	23.298428
745.200500	1108.178589	3820.599365	1708.916138	22.147652
745.518860	1137.760376	3690.894775	1784.008301	25.311945
745.837219	1110.454102	3747.782715	1777.181763	25.280416
746.155518	1094.525513	3608.976074	1654.303589	22.262440
746.473755	1137.760376	3483.822266	1686.160889	23.375362
746.791992	1110.454102	3643.108887	1679.334351	22.461815
747.110107	1076.321289	3645.384277	1815.865601	28.786539
747.428162	1069.494751	3570.292236	1713.467163	25.750683
747.746216	1183.270874	3517.955078	1692.987427	21.832357
748.064148	1183.270874	3520.230713	1752.151001	24.342741
748.382080	1142.311401	3606.700439	1774.906250	25.669437
748.700073	1178.719727	3581.669678	1772.630737	24.715912
749.017822	1110.454102	3442.863037	1688.436401	24.780487
749.335632	1174.168701	3581.669678	1747.599976	23.818527
749.653320	1137.760376	3595.322754	1711.191650	23.333334
749.971008	1112.729614	3549.812500	1745.324463	25.957050
750.288696	1080.872437	3718.200928	1670.232300	22.346849
750.606262	1042.188477	3620.353516	1724.844727	26.478376
750.923828	1101.352051	3643.108887	1727.120239	24.619514
751.241272	1119.556274	3636.282227	1774.906250	26.039782
751.558716	1094.525513	3529.332764	1718.018188	25.607477
751.876038	1028.535400	3636.282227	1788.559326	29.144852
752.193481	1089.974487	3561.189941	1793.110352	28.453039
752.510681	1108.178589	3399.628174	1743.048950	27.706057
752.827942	1064.943726	3442.863037	1706.640625	26.985645
753.145081	1108.178589	3527.057129	1765.804199	27.187212
753.462219	1074.045776	3497.475586	1695.262939	25.633802
753.779297	1146.862427	3513.404053	1740.773438	25.096159
754.096375	1185.546387	3504.302002	1772.630737	25.318941
754.413330	1158.240112	3542.985840	1745.324463	24.618322
754.730286	1144.586914	3568.016602	1729.395752	24.131454
755.047119	1108.178589	3490.648926	1733.946899	26.265526
755.363892	1165.066650	3508.853027	1718.018188	23.592234
755.680725	1105.903076	3524.781738	1758.977539	26.999058
755.997498	1160.515625	3433.760986	1729.395752	25.025021
756.314148	1167.342163	3479.271240	1754.426514	25.393700
756.630737	1140.035889	3490.648926	1724.844727	24.878992
756.947327	1119.556274	3395.077148	1790.834839	29.499994
757.263855	1117.280762	3385.974854	1629.272949	22.567705
757.580261	1119.556274	3422.383301	1640.650513	22.628456
757.896729	1089.974487	3370.046387	1779.457275	30.239521
758.213074	1133.209351	3515.679688	1704.365112	23.973259
758.529419	1105.903076	3467.893799	1645.201538	22.832371
758.845642	1092.250000	3431.485352	1667.956787	24.610897
759.161865	1108.178589	3481.546875	1813.590088	29.721958
759.478149	1153.689087	3447.414063	1722.569214	24.801582
759.794189	1149.138062	3504.302002	1815.865601	28.309175
760.110229	1142.311401	3488.373291	1733.946899	25.218237
760.426270	1074.045776	3508.853027	1824.967651	30.841124
760.742249	1117.280762	3520.230713	1743.048950	26.041666
761.058105	1108.178589	3554.363525	1779.457275	27.441860
761.374023	1171.893188	3624.904541	1802.212524	25.695738
761.689819	1058.117188	3668.139648	1784.008301	27.811680
762.005554	1165.066650	3565.741211	1811.314575	26.919430
762.321289	1135.484863	3595.322754	1745.324463	24.791861
762.636902	1142.311401	3661.312988	1779.457275	25.293589
762.952515	1117.280762	3472.444824	1777.181763	28.019321
763.268127	1165.066650	3718.200928	1872.753662	27.718363
763.583618	1080.872437	3645.384277	1829.518677	29.192545
763.899048	1124.107300	3941.202148	1854.549438	25.928917
764.214478	1155.964600	4280.254395	1925.090576	24.617626
764.529785	1112.729614	4585.174316	2168.571289	30.406290
764.845093	1108.178589	4869.614746	2184.500000	28.614641
765.160400	1135.484863	4997.043457	2207.255127	27.754862
765.475586	1037.637451	4935.604492	2227.734863	30.531233
765.790771	1094.525513	4794.522461	2170.846924	29.089790
766.105835	1103.627563	4673.919922	2077.550537	27.278521
766.420837	1105.903076	4457.745117	1995.631714	26.544468
766.735840	1160.515625	4259.774902	2016.111450	27.606462
767.050842	1115.005249	4036.773926	2000.182739	30.295948
767.365662	1087.698975	3836.528076	1977.427612	32.367550
767.680542	1112.729614	3911.620361	1963.774414	30.406504
767.995300	1087.698975	3870.660889	1843.171875	27.146362
768.309998	1124.107300	3768.262451	1868.202637	28.141136
768.624817	1137.760376	3656.761963	1877.304688	29.358629
768.939392	1058.117188	3627.180176	1886.406738	32.240921
769.254028	1110.454102	3674.966064	1784.008301	26.264420
769.568481	1130.933838	3465.618164	1772.630737	27.485382
769.882935	1076.321289	3488.373291	1772.630737	28.867929
770.197388	1176.444214	3385.974854	1804.488037	28.424307
770.511841	1176.444214	3417.832275	1797.661377	27.715733
770.826172	1165.066650	3294.954102	1815.865601	30.555555
771.140442	1087.698975	3276.750000	1804.488037	32.744282
771.454651	1117.280762	3372.321777	1795.385864	30.070633
771.768860	1115.005249	3244.892578	1804.488037	32.371799
772.082886	1130.933838	3247.168213	1881.855713	35.483871
772.397034	1115.005249	3192.555664	1806.763550	33.296825
772.711060	1151.413574	3128.841064	1784.008301	31.990793
773.025024	1160.515625	3183.453613	1761.253052	29.696285
773.338928	1151.413574	3192.555664	1797.661377	31.661089
773.652771	1178.719727	3167.524902	1745.324463	28.489706
773.966614	1137.760376	3094.708252	1729.395752	30.232557
774.280457	1117.280762	3137.943115	1840.896362	35.810814
774.594116	1128.658325	3078.779541	1699.814087	29.288218
774.907776	1087.698975	3019.616211	1818.141113	37.809185
775.221375	1074.045776	3094.708252	1713.467163	31.644146
775.534912	1149.138062	2999.136475	1718.018188	30.750303
775.848450	1074.045776	3090.157227	1834.069824	37.697521
776.161926	1119.556274	3067.402100	1745.324463	32.126167
776.475342	1146.862427	2971.830078	1834.069824	37.655869
776.788696	1135.484863	3126.565674	1852.273926	36.000000
777.101990	1169.617676	2930.870850	1617.895264	25.452194
777.415283	1105.903076	2924.044189	1695.262939	32.415520
777.728516	1144.586914	2899.013428	1688.436401	30.998705
778.041626	1151.413574	2937.697266	1708.916138	31.210192
778.354736	1133.209351	2935.421875	1770.355225	35.353539
778.667725	1151.413574	3005.962891	1761.253052	32.883434
778.980774	1155.964600	2935.421875	1706.640625	30.946291
779.293640	1126.382813	2880.809326	1711.191650	33.333332
779.606567	1069.494751	2755.655762	1768.079712	41.430500
779.919434	1160.515625	2844.401123	1745.324463	34.729729
780.232239	1171.893188	2878.533936	1831.794189	38.666660
780.544983	1162.791138	2921.768799	1827.243164	37.774899
780.857666	1201.474976	3008.238525	1863.651489	36.649872
781.170227	1169.617676	2792.063965	1740.773438	35.203369
781.482849	1140.035889	2855.778564	1745.324463	35.278519
781.795410	1117.280762	2819.370361	1781.732788	39.037430
782.107910	1126.382813	2889.911377	1774.906250	36.774197
782.420288	1135.484863	2805.717041	1695.262939	33.514984
782.732666	1108.178589	2776.135498	1740.773438	37.926331
783.044983	1196.923950	2712.420898	1692.987427	32.732727
783.357300	1153.689087	2716.971924	1715.742676	35.953415
783.669495	1144.586914	2767.033203	1702.089600	34.361858
783.981689	1160.515625	2785.237549	1724.844727	34.733887
784.293762	1140.035889	2735.176025	1763.528564	39.087017
784.605835	1126.382813	2732.900391	1670.232300	33.852695
784.917908	1121.831787	2632.777588	1727.120239	40.060234
785.229858	1151.413574	2671.461426	1640.650513	32.185627
785.541748	1092.250000	2696.492188	1711.191650	38.581558
785.853577	1242.434326	2591.818115	1692.987427	33.389545
786.165405	1105.903076	2628.226563	1724.844727	40.657696
786.477173	1137.760376	2707.869873	1699.814087	35.797104
786.788879	1049.015137	2641.879639	1704.365112	41.142857
787.100525	1103.627563	2630.501953	1711.191650	39.791359
787.412109	1035.361938	2621.399902	1699.814087	41.893837
787.723694	1064.943726	2600.920166	1656.579102	38.518520
788.035156	998.953613	2605.471436	1702.089600	43.767704
788.346558	1023.984375	2610.022461	1720.293701	43.902435
788.658081	1092.250000	2632.777588	1679.334351	38.109306
788.969360	1099.076538	2653.257324	1708.916138	39.238651
789.280640	1119.556274	2773.859863	1843.171875	43.741402
789.591919	1176.444214	2769.308838	1870.478149	43.571434
789.903076	1158.240112	2848.952148	1840.896362	40.376850
790.214172	1121.831787	2924.044189	1831.794189	39.393936
790.525269	1117.280762	2798.890625	1875.029175	45.060894
790.836365	1124.107300	2744.278076	1804.488037	41.994385
791.147339	1126.382813	2728.349365	1804.488037	42.329548
791.458191	1112.729614	2737.451416	1854.549438	45.658268
791.769104	1103.627563	2657.808350	1738.497925	40.849197
792.079895	1149.138062	2703.318604	1733.946899	37.628117
792.390686	1124.107300	2569.062988	1788.559326	45.984249
792.701416	1169.617676	2541.756836	1793.110352	45.439465
793.012085	1151.413574	2487.144287	1749.875488	44.804085
793.322693	1099.076538	2591.818115	1752.151001	43.750000
793.633240	1185.546387	2544.032227	1629.272949	32.663319
793.943787	1094.525513	2448.460449	1633.823975	39.831932
794.254272	1101.352051	2607.746826	1724.844727	41.389725
794.564636	1094.525513	2471.215576	1711.191650	44.793388
794.875000	1183.270874	2462.113525	1729.395752	42.704620
795.185303	1080.872437	2484.868652	1688.436401	43.273903
795.495544	1021.708862	2496.246338	1749.875488	49.382713
795.805786	1149.138062	2430.256104	1738.497925	46.003555
796.115906	1165.066650	2475.766602	1679.334351	39.236111
796.426025	1108.178589	2491.695313	1761.253052	47.203945
796.736023	1140.035889	2525.828125	1708.916138	41.050903
797.045959	1110.454102	2562.236328	1774.906250	45.768032
797.355896	1142.311401	2598.644775	1822.692139	46.718750
797.665833	1103.627563	2660.083740	1865.927002	48.976608
797.975708	1183.270874	2562.236328	1740.773438	40.429047
798.285461	1083.147949	2641.879639	1779.457275	44.671532
798.595154	1117.280762	2610.022461	1838.620850	48.323170
798.904846	1128.658325	2423.429688	1811.314575	52.724075
799.214478	1096.801025	2473.491211	1781.732788	49.752064
799.524109	1071.770264	2571.338623	1772.630737	46.737480
799.833557	1121.831787	2587.267090	1797.661377	46.118008
800.143005	1089.974487	2462.113525	1740.773438	47.429520
800.452393	1069.494751	2412.052002	1688.436401	46.101696
800.761780	1162.791138	2384.745850	1765.804199	49.348232
801.071106	1058.117188	2405.225586	1702.089600	47.804054
801.380371	1183.270874	2346.062012	1790.834839	52.250481
801.689575	1078.596802	2368.817139	1697.538574	47.971790
801.998718	1196.923950	2414.327637	1597.415649	32.897198
802.307800	1117.280762	2407.500977	1779.457275	51.322750
802.616882	1087.698975	2437.082764	1729.395752	47.554802
802.925903	1108.178589	2405.225586	1711.191650	46.491226
803.234863	1023.984375	2409.776611	1747.599976	52.216743
803.543701	1112.729614	2336.959961	1786.283813	55.018585
803.852539	1069.494751	2425.705078	1790.834839	53.187923
804.161316	1124.107300	2359.715088	1740.773438	49.907921
804.470032	1089.974487	2380.194824	1624.721802	41.446201
804.778809	1115.005249	2280.071777	1797.661377	58.593746
805.087341	1187.821899	2289.173828	1774.906250	53.305790
805.395935	1096.801025	2257.316650	1692.987427	51.372543
805.704468	1110.454102	2311.929199	1690.711914	48.295452
806.012939	1092.250000	2348.337402	1656.579102	44.927536
806.321350	1105.903076	2311.929199	1761.253052	54.339619
806.629761	1185.546387	2418.878662	1765.804199	47.047970
806.938049	1089.974487	2325.582275	1813.590088	58.563534
807.246277	1160.515625	2368.817139	1831.794189	55.555550
807.554504	1039.912964	2302.827148	1774.906250	58.198196
807.862671	1171.893188	2296.000488	1824.967651	58.097164
808.170715	1194.648438	2357.439453	1806.763550	52.641884
808.478821	1176.444214	2418.878662	1818.141113	51.648350
808.786804	1210.577026	2236.836914	1795.385864	56.984478
809.094727	1128.658325	2286.898438	1809.039063	58.742634
809.402649	1146.862427	2298.276123	1802.212524	56.916996
809.710510	1133.209351	2239.112549	1799.937012	60.288067
810.018311	1253.812012	2230.010498	1827.243164	58.741245
810.326050	1153.689087	2211.806152	1727.120239	54.193546
810.633667	1137.760376	2293.724854	1754.426514	53.346462
810.941345	1087.698975	2193.602051	1836.345337	67.695480
811.248901	1149.138062	2257.316650	1754.426514	54.620117
811.556396	1153.689087	2179.948975	1747.599976	57.871391
811.863892	1103.627563	2216.357178	1670.232300	50.920254
812.171326	1039.912964	2273.245361	1706.640625	54.059040
812.478699	1051.290649	2161.744873	1731.671387	61.270489
812.786011	1089.974487	2152.642578	1667.956787	54.389729
813.093262	1140.035889	2125.336426	1683.885376	55.196304
813.400391	1142.311401	2011.560425	1631.548462	56.282726
813.707642	1064.943726	2164.020264	1745.324463	61.904762
814.014709	1103.627563	2150.367188	1731.671387	60.000004
814.321716	1146.862427	2136.714111	1765.804199	62.528740
814.628723	1137.760376	2239.112549	1711.191650	52.066113
814.935669	1046.739624	2141.265137	1793.110352	68.191261
815.242554	1210.577026	2118.509766	1667.956787	50.375954
815.549438	1108.178589	2225.459229	1768.079712	59.063148
815.856201	1092.250000	2104.856689	1677.058838	57.752811
816.162964	1121.831787	2091.203613	1638.375000	53.286385
816.469604	1128.658325	2207.255127	1722.569214	55.063290
816.776184	1208.301514	2109.407715	1779.457275	63.383846
817.082825	1155.964600	2159.469238	1740.773438	58.276646
817.389343	1130.933838	2182.224365	1761.253052	59.956711
817.695801	1060.392700	2159.469238	1677.058838	56.107662
818.002197	1044.463989	2173.122314	1677.058838	56.048393
818.308533	1169.617676	2186.775391	1754.426514	57.494411
818.614868	1119.556274	2214.081787	1790.834839	61.330555
818.921143	1128.658325	2216.357178	1761.253052	58.158997
819.227356	1135.484863	2195.877686	1777.181763	60.515018
819.533447	1115.005249	2207.255127	1779.457275	60.833336
819.839539	1087.698975	2245.938965	1868.202637	67.387039
820.145569	1126.382813	2291.449463	1870.478149	63.867191
820.451538	1137.760376	2341.510986	1981.978638	70.132324
820.757568	1144.586914	2421.154053	1954.672363	63.458115
821.063416	1140.035889	2566.787354	2086.652588	66.347694
821.369263	1115.005249	2678.288086	2143.540527	65.793297
821.675049	1165.066650	2819.370361	2200.428711	62.585972
821.980713	1169.617676	2842.125488	2264.143311	65.442184
822.286438	1055.841675	3067.402100	2361.990479	64.932121
822.592102	1094.525513	3269.923340	2569.062988	67.782425
822.897583	1058.117188	4002.641113	3042.371338	67.387947
823.203125	1037.637451	6116.600098	4296.183105	64.157700
823.508545	1115.005249	8312.477539	5995.997070	67.815361
823.813965	1099.076538	10292.180664	7083.696289	65.099007
824.119263	1119.556274	10968.010742	7425.024414	64.024956
824.424622	1101.352051	9909.893555	6828.837891	65.021957
824.729858	1119.556274	8426.253906	5909.527344	65.555893
825.035095	1153.689087	7331.728027	5119.921875	64.198898
825.340149	1140.035889	6259.957520	4362.173340	62.933331
825.645264	1099.076538	5433.943848	3995.814453	66.824142
825.950256	1126.382813	5003.870117	3558.914551	62.734745
826.255310	1135.484863	4612.480469	3436.036377	66.164925
826.560242	1080.872437	4148.274414	3067.402100	64.762619
826.865112	1101.352051	3929.824463	2921.768799	64.360420
827.169922	1112.729614	3806.946289	2903.564453	66.469589
827.474670	1162.791138	3690.894775	2928.595215	69.846985
827.779419	1087.698975	3866.109863	2876.258301	64.373466
828.084045	1176.444214	4257.499512	3156.147461	64.254066
828.388672	1130.933838	4771.767090	3554.363525	66.562500
828.693176	1165.066650	5215.493652	3957.130615	68.932587
828.997681	1178.719727	5192.738281	3941.202148	68.820869
829.302124	1146.862427	4774.042480	3513.404053	65.244667
829.606567	1126.382813	4041.324951	3144.769775	69.242783
829.910828	1142.311401	3647.659912	2894.462402	69.936417
830.215149	1124.107300	3463.342773	2780.686523	70.817123
830.519348	1217.403687	3160.698486	2541.756836	68.149887
830.823547	1094.525513	2885.360352	2384.745850	72.045746
831.127686	1087.698975	2844.401123	2355.164063	72.150253
831.431763	1108.178589	2687.390137	2145.816162	65.706055
831.735779	1108.178589	2544.032227	2000.182739	62.123611
832.039734	1115.005249	2509.899414	1934.192627	58.727566
832.343628	1117.280762	2400.674561	1897.784302	60.815594
832.647461	1153.689087	2282.347412	1893.233276	65.524185
832.951233	1196.923950	2350.613037	1906.886475	61.538464
833.255127	1117.280762	2255.041016	1993.356201	77.000008
833.558777	1149.138062	2311.929199	1961.498901	69.863007
833.862366	1203.750488	2291.449463	1911.437500	65.062767
834.165955	1162.791138	2423.429688	2152.642578	78.519844
834.469482	1178.719727	2785.237549	2202.704102	63.739372
834.773010	1160.515625	3112.912354	2614.573486	74.475533
835.076416	1110.454102	3465.618164	2899.013428	75.942024
835.379822	1126.382813	3697.721191	2994.585449	72.654877
835.683105	1180.995239	3620.353516	2942.248291	72.201485
835.986389	1037.637451	3502.026611	2773.859863	70.452446
836.289612	1067.219238	3228.964111	2707.869873	75.894737
836.592773	1105.903076	3042.371338	2380.194824	65.804939
836.895874	1108.178589	2801.166016	2291.449463	69.892479
837.198914	1149.138062	2612.297852	2300.551514	78.693626
837.501892	1085.423462	2528.103516	2111.683350	71.135651
837.804871	1135.484863	2332.408936	1988.805176	71.292770
838.107666	1117.280762	2227.734863	2011.560425	80.532791
838.410583	1067.219238	2259.592041	1906.886475	70.419861
838.713379	1133.209351	2154.918213	1827.243164	67.928726
839.016052	1078.596802	2038.866699	1754.426514	70.379143
839.318787	1126.382813	2032.040039	1836.345337	78.391968
839.621338	1149.138062	1950.121338	1815.865601	83.238632
839.923889	1087.698975	1913.713013	1731.671387	77.961433
840.226440	1085.423462	1938.743774	1793.110352	82.933319
840.528931	1117.280762	1988.805176	1786.283813	76.762398
840.831299	1160.515625	2002.458252	1763.528564	71.621620
841.133606	1180.995239	2082.101563	1820.416626	70.959595
841.435913	1067.219238	2209.530762	1936.468262	76.095619
841.738220	1133.209351	2216.357178	1929.641602	73.529411
842.040405	1067.219238	2259.592041	1909.161987	70.610695
842.342529	1142.311401	2041.142212	1911.437500	85.569618
842.644592	1128.658325	2036.591064	1813.590088	75.438599
842.946594	1133.209351	1909.161987	1722.569214	75.953072
843.248596	1080.872437	1895.508789	1731.671387	79.888275
843.550598	1174.168701	1884.131226	1758.977539	82.371788
843.852478	1153.689087	1829.518677	1654.303589	74.074074
844.154236	1108.178589	1890.957764	1654.303589	69.767441
844.455994	1153.689087	1829.518677	1665.681274	75.757584
844.757690	1165.066650	1754.426514	1642.926025	81.081085
845.059326	1105.903076	1770.355225	1542.803101	65.753426
845.360962	1133.209351	1781.732788	1590.588989	70.526306
845.662476	1190.097412	1608.793213	1565.558350	89.673920
845.963989	1110.454102	1747.599976	1565.558350	71.428581
846.265381	1140.035889	1677.058838	1549.629639	76.271179
846.566772	1137.760376	1642.926025	1497.292725	71.171181
846.868042	1117.280762	1665.681274	1522.323364	73.858902
847.169373	1096.801025	1615.619751	1476.812988	73.245613
847.470581	1126.382813	1581.486938	1579.211426	99.500000
847.771729	1117.280762	1706.640625	1549.629639	73.359062
848.072815	1060.392700	1690.711914	1463.159912	63.898926
848.373901	1117.280762	1640.650513	1501.843750	73.478264
848.674866	1151.413574	1624.721802	1561.007324	86.538483
848.975891	1071.770264	1588.313477	1417.649414	66.960350
849.276794	1062.668213	1586.037964	1467.710938	77.391312
849.577637	1101.352051	1670.232300	1435.853638	58.799999
849.878357	1089.974487	1633.823975	1431.302612	62.761505
850.179077	1014.882263	1586.037964	1499.568237	84.860565
850.479736	1167.342163	1547.354126	1513.221313	91.017967
850.780396	1112.729614	1581.486938	1501.843750	83.009720
851.080994	1135.484863	1601.966675	1485.915039	75.121941
851.381470	1101.352051	1626.997314	1513.221313	78.354980
851.681946	1074.045776	1615.619751	1431.302612	65.966400
851.982361	1096.801025	1636.099487	1429.027100	61.603378
852.282715	1135.484863	1579.211426	1451.782227	71.282043
852.583008	1146.862427	1565.558350	1576.935913	102.717384
852.883240	1112.729614	1622.446289	1424.476074	61.160732
853.183411	1108.178589	1579.211426	1499.568237	83.091797
853.483521	1133.209351	1556.456177	1449.506714	74.731186
853.783630	1101.352051	1642.926025	1435.853638	61.764709
854.083679	1135.484863	1656.579102	1458.608887	62.008751
854.383667	1101.352051	1490.466064	1545.078613	114.035103
854.683533	1178.719727	1531.425537	1394.894287	61.290333
854.983337	1133.209351	1547.354126	1465.435425	80.219788
855.283203	1135.484863	1524.598877	1488.190552	90.643272
855.582886	1080.872437	1570.109375	1476.812988	80.930222
855.882629	1130.933838	1586.037964	1485.915039	78.000000
856.182312	1121.831787	1454.057739	1479.088501	107.534256
856.481873	1121.831787	1531.425537	1417.649414	72.222206
856.781372	1089.974487	1615.619751	1483.639526	74.891769
857.080872	1153.689087	1556.456177	1476.812988	80.225990
857.380310	1162.791138	1497.292725	1479.088501	94.557808
857.679688	1074.045776	1535.976563	1542.803101	101.477829
857.979004	1137.760376	1579.211426	1422.200562	64.433006
858.278259	1096.801025	1531.425537	1472.261963	86.387428
858.577454	1171.893188	1524.598877	1488.190552	89.677422
858.876648	1128.658325	1490.466064	1401.720825	75.471710
859.175720	1103.627563	1504.119263	1469.986450	91.477272
859.474792	1019.433350	1547.354126	1526.874512	96.120705
859.773743	1058.117188	1638.375000	1403.996338	59.607841
860.072693	1158.240112	1592.864502	1447.231201	66.492149
860.371521	1251.536499	1535.976563	1440.404663	66.399986
860.670349	1187.821899	1529.150024	1383.516602	57.333305
860.969116	1137.760376	1485.915039	1447.231201	88.888893
861.267883	1183.270874	1520.047852	1501.843750	94.594612
861.566589	1071.770264	1497.292725	1433.578125	85.026733
861.865112	1076.321289	1522.323364	1460.884399	86.224510
862.163635	1126.382813	1545.078613	1481.364014	84.782600
862.462158	1137.760376	1504.119263	1469.986450	90.683228
862.760620	1135.484863	1542.803101	1433.578125	73.184364
863.059021	1053.566162	1558.731689	1442.680176	77.027031
863.357361	1153.689087	1533.701050	1481.364014	86.227531
863.655640	1180.995239	1474.537476	1435.853638	86.821716
863.953857	1108.178589	1561.007324	1520.047852	90.954758
864.251953	1196.923950	1558.731689	1506.394775	85.534607
864.550110	1144.586914	1551.905151	1490.466064	84.916199
864.848206	1058.117188	1608.793213	1485.915039	77.685944
865.146179	1146.862427	1538.252075	1510.945801	93.023254
865.444092	1064.943726	1551.905151	1551.905151	100.000000
865.741943	1092.250000	1472.261963	1504.119263	108.383240
866.039795	1112.729614	1460.884399	1403.996338	83.660126
866.337646	1153.689087	1522.323364	1465.435425	84.567917
866.635376	1035.361938	1438.129150	1463.159912	106.214699
866.933044	1199.199463	1508.670288	1376.690063	57.352936
867.230652	1035.361938	1533.701050	1435.853638	80.365295
867.528198	1151.413574	1488.190552	1438.129150	85.135147
867.825745	1165.066650	1547.354126	1460.884399	77.380966
868.123230	1076.321289	1551.905151	1454.057739	79.425835
868.420593	1183.270874	1551.905151	1538.252075	96.296310
868.717896	1212.852539	1504.119263	1485.915039	93.749985
869.015198	1142.311401	1454.057739	1531.425537	124.817551
869.312439	1135.484863	1483.639526	1388.067749	72.549049
869.609619	1119.556274	1454.057739	1433.578125	93.877571
869.906738	1087.698975	1474.537476	1474.537476	100.000000
870.203796	1069.494751	1545.078613	1381.241089	65.550232
870.500854	1142.311401	1574.660400	1515.496826	86.315781
870.797791	1112.729614	1524.598877	1431.302612	77.348091
871.094666	1103.627563	1604.242188	1390.343262	57.272736
871.391602	1069.494751	1563.282837	1501.843750	87.557602
871.688293	1110.454102	1542.803101	1458.608887	80.526329
871.985107	1062.668213	1554.180664	1422.200562	73.148170
872.281738	1053.566162	1520.047852	1458.608887	86.829285
872.578369	1121.831787	1549.629639	1476.812988	82.978722
872.874939	1119.556274	1556.456177	1460.884399	78.125015
873.171509	1094.525513	1467.710938	1458.608887	97.560982
873.467957	1049.015137	1426.751587	1490.466064	116.867439
873.764343	1171.893188	1490.466064	1429.027100	80.714317
874.060669	1069.494751	1488.190552	1485.915039	99.456520
874.356995	1085.423462	1595.140137	1394.894287	60.714283
874.653198	1078.596802	1510.945801	1531.425537	104.736855
874.949463	1124.107300	1472.261963	1410.822876	82.352936
875.245544	1133.209351	1579.211426	1451.782227	71.428566
875.541626	1174.168701	1529.150024	1474.537476	84.615372
875.837646	1158.240112	1574.660400	1510.945801	84.699448
876.133606	1178.719727	1522.323364	1429.027100	72.847710
876.429565	1142.311401	1490.466064	1438.129150	84.967339
876.725403	1176.444214	1554.180664	1454.057739	73.493973
877.021179	1105.903076	1558.731689	1517.772339	90.954781
877.316956	1128.658325	1465.435425	1463.159912	99.324326
877.612610	1119.556274	1574.660400	1467.710938	76.500000
877.908203	1115.005249	1499.568237	1390.343262	71.597633
878.203857	1074.045776	1524.598877	1447.231201	82.828293
878.499390	1078.596802	1517.772339	1488.190552	93.264244
878.794800	1121.831787	1481.364014	1551.905151	119.620255
879.090271	1094.525513	1495.017212	1558.731689	115.909065
879.385559	1149.138062	1567.833862	1558.731689	97.826065
879.680847	1130.933838	1611.068726	1504.119263	77.725121
879.976196	1124.107300	1570.109375	1597.415649	106.122452
880.271301	1140.035889	1642.926025	1556.456177	82.805420
880.566467	1208.301514	1615.619751	1695.262939	119.553062
880.861572	1126.382813	1702.089600	1640.650513	89.328056
881.156555	1119.556274	1822.692139	1809.039063	98.058258
881.451477	1069.494751	1906.886475	1909.161987	100.271736
881.746460	1112.729614	2282.347412	2136.714111	87.548645
882.041321	1039.912964	2848.952148	2735.176025	93.710686
882.336121	1110.454102	3599.874023	3533.883789	97.349174
882.630798	1053.566162	4205.162598	4168.753906	98.844757
882.925537	1078.596802	4642.062500	4603.378418	98.914429
883.220215	1130.933838	4867.338867	4562.419434	91.839233
883.514771	1055.841675	4448.643066	4196.060547	92.555344
883.809326	1112.729614	4105.039551	3909.344727	93.460075
884.103760	1169.617676	3834.252441	3622.629150	92.058075
884.398132	1165.066650	3590.771729	3315.433838	88.649162
884.692505	1176.444214	3363.219727	3140.218750	89.802299
884.986816	1110.454102	3101.534912	2962.728027	93.028564
885.281067	1153.689087	2978.656738	2817.094727	91.147133
885.575256	1160.515625	2755.655762	2603.195801	90.442223
885.869385	1196.923950	2480.317627	2471.215576	99.290779
886.163452	1092.250000	2346.062012	2311.929199	97.277679
886.457458	1162.791138	2150.367188	2093.479248	94.239639
886.751465	1194.648438	2098.030273	2164.020264	107.304771
887.045410	1112.729614	2066.172852	1906.886475	83.293564
887.339233	1162.791138	1915.988525	1941.019287	103.323265
887.632996	1112.729614	1793.110352	1754.426514	94.314384
887.926758	1153.689087	1838.620850	1824.967651	98.006638
888.220398	1187.821899	1774.906250	1674.783325	82.945732
888.514099	1121.831787	1686.160889	1708.916138	104.032265
888.807678	1037.637451	1611.068726	1601.966675	98.412704
889.101196	1135.484863	1649.752563	1642.926025	98.672569
889.394653	1158.240112	1597.415649	1535.976563	86.010361
889.688049	1067.219238	1476.812988	1490.466064	103.333321
889.981384	1105.903076	1611.068726	1554.180664	88.738731
890.274719	1099.076538	1538.252075	1485.915039	88.082886
890.567932	1140.035889	1604.242188	1492.741699	75.980400
>>>>>End Processed Spectral Data<<<<<
