Jaz Data File
++++++++++++++++++++++++++++++++++++
Date: Sun Sep 29 07:28:52 2024
User: jaz
Dark Spectrum Present: Yes
Reference Spectrum Present: Yes
Processed Spectrum Present: Yes
Spectrometers: JAZA3692
Integration Time (usec): 40000 (JAZA3692)
Spectra Averaged: 1 (JAZA3692)
Boxcar Smoothing: 0 (JAZA3692)
Correct for Electrical Dark: No (JAZA3692)
Strobe/Lamp Enabled: Yes (JAZA3692)
Correct for Detector Non-linearity: No (JAZA3692)
Correct for Stray Light: No (JAZA3692)
Number of Pixels in Processed Spectrum: 2048
>>>>>Begin Processed Spectral Data<<<<<
W	D	R	S	P
190.244385	0.000000	0.000000	0.000000	0.000000
190.627136	0.000000	0.000000	0.000000	0.000000
191.009842	1105.903076	1067.219238	1083.147949	58.823345
191.392532	1112.729614	1064.943726	1099.076538	28.571356
191.775177	1137.760376	1119.556274	1137.760376	-0.000000
192.157791	1144.586914	1085.423462	1087.698975	96.153854
192.540390	1196.923950	1151.413574	1055.841675	310.000244
192.922943	1178.719727	1074.045776	1117.280762	58.695564
193.305481	1183.270874	1162.791138	1101.352051	399.999390
193.687958	1105.903076	1190.097412	1087.698975	-21.621527
194.070419	1112.729614	1087.698975	1130.933838	-72.727760
194.452866	1221.954712	1178.719727	1108.178589	263.157532
194.835251	1187.821899	1249.260864	1103.627563	-137.037354
195.217621	1199.199463	1210.577026	1128.658325	-620.002136
195.599960	1142.311401	1135.484863	1192.372925	-733.336914
195.982254	1078.596802	1137.760376	1158.240112	134.615448
196.364517	1124.107300	1146.862427	1174.168701	220.000534
196.746750	1167.342163	1128.658325	1192.372925	-64.705994
197.128952	1178.719727	1169.617676	1117.280762	675.001343
197.511139	1167.342163	1233.332275	1169.617676	3.448263
197.893280	1165.066650	1092.250000	1162.791138	3.124990
198.275391	1087.698975	1187.821899	1105.903076	18.181751
198.657471	1119.556274	1206.026001	1167.342163	55.263142
199.039520	1130.933838	1256.087524	1137.760376	5.454524
199.421539	1171.893188	1215.128052	1128.658325	-100.000000
199.803513	1185.546387	1110.454102	1151.413574	45.454487
200.185471	1099.076538	1144.586914	1144.586914	100.000000
200.567383	1208.301514	1162.791138	1158.240112	109.999969
200.949265	1167.342163	1221.954712	1151.413574	-29.166536
201.331131	1124.107300	1137.760376	1176.444214	383.334229
201.712967	1140.035889	1101.352051	1149.138062	-23.529654
202.094742	1133.209351	1180.995239	1085.423462	-100.000000
202.476517	1083.147949	1199.199463	1180.995239	84.313667
202.858231	1128.658325	1153.689087	1103.627563	-100.000000
203.239944	1103.627563	1155.964600	1167.342163	121.739029
203.621582	1121.831787	1130.933838	1119.556274	-25.000000
204.003235	1137.760376	1112.729614	1124.107300	54.545189
204.384827	1144.586914	1185.546387	1092.250000	-127.777313
204.766388	1108.178589	1215.128052	1096.801025	-10.638262
205.147934	1078.596802	1153.689087	1103.627563	33.333332
205.529449	1146.862427	1133.209351	1140.035889	50.000000
205.910904	1119.556274	1206.026001	1137.760376	21.052572
206.292343	1115.005249	1092.250000	1126.382813	-49.999733
206.673767	1140.035889	1158.240112	1135.484863	-24.999832
207.055115	1233.332275	1094.525513	1030.810913	145.901657
207.436462	1076.321289	1174.168701	1121.831787	46.511703
207.817780	1151.413574	1096.801025	1151.413574	-0.000000
208.199051	1126.382813	1187.821899	1076.321289	-81.481552
208.580307	1044.463989	1108.178589	1155.964600	175.000092
208.961517	1092.250000	1126.382813	1167.342163	219.999924
209.342712	1069.494751	1121.831787	1115.005249	86.956581
209.723846	1092.250000	1149.138062	1235.607788	251.999771
210.104965	1187.821899	1140.035889	1105.903076	171.428467
210.486069	1128.658325	1190.097412	1155.964600	44.444466
210.867111	1078.596802	1128.658325	1051.290649	-54.545189
211.248123	1176.444214	1130.933838	1149.138062	59.999840
211.629120	1130.933838	1169.617676	1099.076538	-82.352997
212.010071	1089.974487	1142.311401	1078.596802	-21.739313
212.390991	1126.382813	1128.658325	1126.382813	0.000000
212.771881	1187.821899	1128.658325	1078.596802	184.615448
213.152756	1160.515625	1171.893188	1149.138062	-100.000000
213.533569	1115.005249	1146.862427	1190.097412	235.715057
213.914368	1124.107300	1196.923950	1039.912964	-115.625114
214.295135	1199.199463	1201.474976	1089.974487	-4800.016113
214.675858	1140.035889	1112.729614	1169.617676	-108.333298
215.056549	1130.933838	1101.352051	1112.729614	61.538620
215.437225	1153.689087	1130.933838	1101.352051	229.999832
215.817841	1155.964600	1196.923950	1178.719727	55.555389
216.198441	1115.005249	1176.444214	1119.556274	7.407393
216.579025	1140.035889	1160.515625	1146.862427	33.333134
216.959549	1128.658325	1233.332275	1110.454102	-17.391359
217.340057	1067.219238	1144.586914	1137.760376	91.176498
217.720535	1165.066650	1160.515625	1167.342163	-50.000000
218.100967	1153.689087	1160.515625	1110.454102	-633.336914
218.481369	1151.413574	1128.658325	1146.862427	20.000429
218.861740	1119.556274	1117.280762	1167.342163	-2100.005371
219.242065	1119.556274	1146.862427	1112.729614	-25.000446
219.622391	1153.689087	1115.005249	1108.178589	117.647316
220.002670	1083.147949	1142.311401	1103.627563	34.615314
220.382919	1146.862427	1130.933838	1140.035889	42.857143
220.763123	1128.658325	1162.791138	1135.484863	19.999928
221.143295	1128.658325	1190.097412	1165.066650	59.259224
221.523453	1169.617676	1180.995239	1199.199463	260.001068
221.903549	1121.831787	1194.648438	1124.107300	3.124990
222.283630	1142.311401	1212.852539	1069.494751	-103.225792
222.663696	1160.515625	1126.382813	1117.280762	126.666573
223.043701	1115.005249	1196.923950	1108.178589	-8.333458
223.423676	1058.117188	1142.311401	1144.586914	102.702698
223.803635	1140.035889	1149.138062	1180.995239	449.995300
224.183548	1080.872437	1192.372925	1142.311401	55.101971
224.563431	1033.086426	1192.372925	1058.117188	15.714302
224.943283	1115.005249	1174.168701	1160.515625	76.923126
225.323105	1110.454102	1144.586914	1112.729614	6.666643
225.702881	1133.209351	1199.199463	1060.392700	-110.344788
226.082642	1085.423462	1149.138062	1103.627563	28.571320
226.462357	1146.862427	1244.709839	1089.974487	-58.139442
226.842041	1087.698975	1165.066650	1158.240112	91.176498
227.221695	1124.107300	1178.719727	1151.413574	50.000111
227.601318	1137.760376	1171.893188	1076.321289	-180.000076
227.980911	1135.484863	1171.893188	1130.933838	-12.499958
228.360474	1058.117188	1206.026001	1133.209351	50.769230
228.739990	1171.893188	1290.220337	1080.872437	-76.922966
229.119476	1105.903076	1231.056763	1142.311401	29.090893
229.498932	1074.045776	1237.883301	1219.679199	88.888931
229.878372	1124.107300	1324.353149	1212.852539	44.318142
230.257736	1167.342163	1454.057739	1180.995239	4.761889
230.637115	1126.382813	1383.516602	1246.985352	46.902641
231.016449	1067.219238	1367.588013	1178.719727	37.121197
231.395737	1155.964600	1381.241089	1171.893188	7.070684
231.774994	1144.586914	1306.148926	1155.964600	7.042303
232.154221	1128.658325	1253.812012	1155.964600	21.818193
232.533417	1087.698975	1292.495850	1167.342163	38.888870
232.912582	1071.770264	1292.495850	1183.270874	50.515488
233.291702	1117.280762	1278.842651	1121.831787	2.816893
233.670792	1149.138062	1272.016113	1158.240112	7.407385
234.049866	1151.413574	1328.904175	1126.382813	-14.102585
234.428894	1117.280762	1310.699951	1140.035889	11.764668
234.807892	1155.964600	1315.250977	1201.474976	28.571417
235.186874	1178.719727	1256.087524	1165.066650	-17.646975
235.565781	1128.658325	1269.740601	1140.035889	8.064488
235.944687	1087.698975	1328.904175	1194.648438	44.339619
236.323547	1133.209351	1317.526489	1130.933838	-1.234564
236.702377	1110.454102	1272.016113	1153.689087	26.760612
237.081177	1115.005249	1278.842651	1096.801025	-11.111153
237.459946	1130.933838	1297.046875	1128.658325	-1.369858
237.838669	1167.342163	1340.281738	1206.026001	22.368412
238.217361	1130.933838	1353.934937	1117.280762	-6.122426
238.596039	1110.454102	1381.241089	1176.444214	24.369751
238.974670	1087.698975	1326.628662	1167.342163	33.333317
239.353271	1030.810913	1406.271851	1187.821899	41.818195
239.731842	1115.005249	1381.241089	1153.689087	14.529914
240.110367	1146.862427	1401.720825	1174.168701	10.714293
240.488876	1140.035889	1322.077637	1087.698975	-28.749952
240.867340	1089.974487	1399.445313	1146.862427	18.382328
241.245789	1151.413574	1392.618774	1108.178589	-17.924566
241.624176	1124.107300	1460.884399	1144.586914	6.081059
242.002548	1130.933838	1526.874512	1194.648438	16.091957
242.380890	1169.617676	1479.088501	1237.883301	22.058825
242.759186	1128.658325	1633.823975	1231.056763	20.270269
243.137451	1144.586914	1692.987427	1235.607788	16.597519
243.515686	1146.862427	1802.212524	1244.709839	14.930555
243.893890	1142.311401	1745.324463	1333.455200	31.698120
244.272049	1055.841675	1875.029175	1228.781250	21.111111
244.650192	1140.035889	1761.253052	1217.403687	12.454227
245.028290	1135.484863	1672.507813	1246.985352	20.762705
245.406357	1135.484863	1663.405762	1208.301514	13.793098
245.784393	1144.586914	1617.895264	1221.954712	16.346172
246.162384	1149.138062	1617.895264	1153.689087	0.970870
246.540359	1140.035889	1647.477051	1206.026001	13.004485
246.918289	1128.658325	1704.365112	1326.628662	34.387356
247.296204	1146.862427	1843.171875	1308.424438	23.202616
247.674057	1201.474976	2100.305664	1331.179688	14.430383
248.051895	1162.791138	2296.000488	1392.618774	20.281128
248.429703	1146.862427	2355.164063	1403.996338	21.280605
248.807465	1155.964600	2434.807373	1394.894287	18.683273
249.185196	1124.107300	2189.051025	1403.996338	26.282049
249.562897	1096.801025	2091.203613	1342.557251	24.713957
249.940567	1110.454102	1945.570313	1365.312500	30.517717
250.318192	1155.964600	1904.610962	1299.322388	19.148933
250.695801	1167.342163	1831.794189	1235.607788	10.273973
251.073349	1174.168701	1733.946899	1258.363037	15.040660
251.450882	1135.484863	1736.222412	1210.577026	12.499995
251.828400	1133.209351	1779.457275	1231.056763	15.140847
252.205872	1115.005249	1758.977539	1235.607788	18.727909
252.583313	1130.933838	1752.151001	1281.118164	24.175817
252.960693	1112.729614	1813.590088	1265.189575	21.753254
253.338074	1071.770264	1909.161987	1290.220337	26.086964
253.715408	1142.311401	1906.886475	1210.577026	8.928571
254.092682	1099.076538	1868.202637	1297.046875	25.739647
254.469955	1087.698975	1749.875488	1237.883301	22.680407
254.847198	1121.831787	1683.885376	1231.056763	19.433195
255.224365	1149.138062	1677.058838	1183.270874	6.465518
255.601563	1115.005249	1738.497925	1155.964600	6.569339
255.978683	1089.974487	1747.599976	1297.046875	31.487890
256.355743	1115.005249	1720.293701	1251.536499	22.556395
256.732819	1171.893188	1720.293701	1237.883301	12.033196
257.109894	1133.209351	1631.548462	1192.372925	11.872151
257.486877	1183.270874	1708.916138	1231.056763	9.090900
257.863831	1142.311401	1731.671387	1194.648438	8.880317
258.240753	1135.484863	1870.478149	1274.291626	18.885447
258.617645	1162.791138	1818.141113	1199.199463	5.555554
258.994507	1060.392700	1970.601074	1260.638550	22.000000
259.371307	1078.596802	2016.111450	1324.353149	26.213600
259.748108	1096.801025	2182.224365	1299.322388	18.658283
260.124878	1121.831787	2361.990479	1372.139038	20.183485
260.501617	1094.525513	2630.501953	1410.822876	20.592592
260.878296	1103.627563	2949.074951	1515.496826	22.318125
261.254944	1115.005249	3015.064941	1474.537476	18.922153
261.631561	1099.076538	3010.513916	1410.822876	16.309525
262.008179	1119.556274	2755.655762	1394.894287	16.828928
262.384735	1096.801025	2416.603027	1426.751587	25.000004
262.761261	1135.484863	2086.652588	1338.006226	21.291866
263.137695	1060.392700	2170.846924	1246.985352	16.803272
263.514191	1108.178589	2093.479248	1281.118164	17.551960
263.890594	1110.454102	2152.642578	1315.250977	19.650656
264.267029	1108.178589	2002.458252	1285.669312	19.847340
264.643341	1067.219238	2016.111450	1290.220337	23.501204
265.019653	1094.525513	2116.234375	1260.638550	16.258354
265.395935	1108.178589	2066.172852	1319.802124	22.090271
265.772217	1144.586914	1966.049927	1319.802124	21.329653
266.148407	1128.658325	1993.356201	1322.077637	22.368427
266.524597	1137.760376	2070.723877	1269.740601	14.146344
266.900726	1119.556274	2027.489014	1367.588013	27.318295
267.276855	1151.413574	2243.663574	1351.659302	18.333324
267.652924	1085.423462	2209.530762	1381.241089	26.315783
268.028992	1105.903076	2327.857666	1353.934937	20.297960
268.404999	1183.270874	2305.102539	1376.690063	17.241373
268.781006	1137.760376	2389.296875	1378.965576	19.272726
269.156921	1062.668213	2296.000488	1378.965576	25.645754
269.532837	1171.893188	2346.062012	1312.975464	12.015502
269.908661	1165.066650	2296.000488	1351.659302	16.498989
270.284546	1112.729614	2250.489990	1326.628662	18.800009
270.660339	1076.321289	2248.214600	1388.067749	26.601950
271.036133	1185.546387	2282.347412	1349.383789	14.937751
271.411835	1101.352051	2473.491211	1328.904175	16.583750
271.787537	1137.760376	2493.970703	1399.445313	19.295307
272.163239	1151.413574	2703.318604	1463.159912	20.087978
272.538849	1105.903076	2873.982666	1467.710938	20.463324
272.914459	1119.556274	2960.452637	1429.027100	16.810877
273.290070	1165.066650	2855.778564	1492.741699	19.380892
273.665588	1080.872437	2673.737061	1458.608887	23.714285
274.041046	1135.484863	2707.869873	1394.894287	16.497831
274.416565	1180.995239	2664.634766	1422.200562	16.257677
274.791962	1117.280762	2637.328613	1458.608887	22.455091
275.167389	1055.841675	2553.134277	1413.098389	23.860180
275.542755	1121.831787	2450.735840	1390.343262	20.205482
275.918060	1033.086426	2455.286865	1392.618774	25.280005
276.293365	1117.280762	2514.450439	1381.241089	18.892504
276.668640	1124.107300	2523.552490	1424.476074	21.463419
277.043854	1060.392700	2614.573486	1403.996338	22.108345
277.419037	1083.147949	2546.307861	1479.088501	27.060648
277.794189	1119.556274	2557.685303	1490.466064	25.791134
278.169312	1126.382813	2548.583252	1520.047852	27.679996
278.544373	1117.280762	2607.746826	1426.751587	20.763359
278.919464	1135.484863	2580.440674	1451.782227	21.889761
279.294464	1103.627563	2559.960938	1490.466064	26.562496
279.669464	1171.893188	2573.614014	1490.466064	22.727270
280.044403	1165.066650	2630.501953	1540.527588	25.621120
280.419312	1206.026001	2650.981689	1563.282837	24.724415
280.794189	1140.035889	2594.093750	1469.986450	22.691708
281.169037	1121.831787	2728.349365	1449.506714	20.396597
281.543854	1192.372925	2710.145264	1529.150024	22.188908
281.918671	1144.586914	2769.308838	1504.119263	22.128855
282.293365	1121.831787	2908.115479	1520.047852	22.292992
282.668091	1096.801025	3165.249512	1551.905151	22.002197
283.042786	1089.974487	3099.259277	1615.619751	26.160814
283.417419	1094.525513	3281.301025	1549.629639	20.811653
283.792053	1146.862427	3197.106689	1633.823975	23.751392
284.166595	1130.933838	2990.034424	1576.935913	23.990208
284.541138	1121.831787	3035.544678	1624.721802	26.278236
284.915619	1080.872437	2910.391113	1595.140137	28.109453
285.290100	1121.831787	3008.238525	1504.119263	20.265379
285.664520	1165.066650	3094.708252	1588.313477	21.933960
286.038940	1119.556274	3081.055176	1611.068726	25.058002
286.413300	1105.903076	3215.310791	1599.691162	23.408850
286.787628	1153.689087	3281.301025	1738.497925	27.486633
287.161896	1160.515625	3399.628174	1708.916138	24.491869
287.536194	1130.933838	3390.525879	1688.436401	24.672709
287.910400	1128.658325	3388.250488	1690.711914	24.874115
288.284607	1003.504700	3351.842041	1674.783325	28.585272
288.658752	1155.964600	3060.575439	1570.109375	21.744326
289.032867	1121.831787	3005.962891	1583.762451	24.516907
289.406921	1121.831787	3083.330566	1626.997314	25.754057
289.781006	1124.107300	3160.698486	1692.987427	27.932957
290.154999	1146.862427	3194.831299	1542.803101	19.333334
290.529022	1133.209351	3281.301025	1590.588989	21.292370
290.902954	1053.566162	3404.179199	1690.711914	27.105515
291.276825	1103.627563	3479.271240	1770.355225	28.065138
291.650757	1069.494751	3458.791504	1779.457275	29.714287
292.024597	1094.525513	3392.801514	1690.711914	25.940594
292.398407	1085.423462	3401.903564	1790.834839	30.451866
292.772156	1178.719727	3345.015625	1758.977539	26.785713
293.145905	1096.801025	3247.168213	1599.691162	23.386246
293.519592	1146.862427	3217.586426	1624.721802	23.076921
293.893280	1130.933838	3285.852051	1629.272949	23.125662
294.266907	1078.596802	3228.964111	1652.028076	26.666668
294.640533	1069.494751	3429.209961	1649.752563	24.590162
295.014069	1083.147949	3429.209961	1784.008301	29.873905
295.387604	1121.831787	3686.343750	1829.518677	27.595383
295.761078	1085.423462	3754.609375	1784.008301	26.172205
296.134552	1128.658325	3677.241699	1713.467163	22.946426
296.507996	1165.066650	3718.200928	1784.008301	24.242424
296.881378	1067.219238	3759.160400	1822.692139	28.064243
297.254730	1080.872437	3988.988037	1770.355225	23.708918
297.628021	1126.382813	4070.906738	1797.661377	22.797525
298.001282	1142.311401	4159.651855	1879.580200	24.434393
298.374573	1121.831787	4282.530273	1861.375977	23.398125
298.747803	1096.801025	4257.499512	1897.784302	25.341970
299.121002	1096.801025	3988.988037	1743.048950	22.344610
299.494141	1124.107300	3729.578613	1729.395752	23.231440
299.867188	1119.556274	3624.904541	1758.977539	25.522251
300.240265	1076.321289	3720.476563	1722.569214	24.440619
300.613312	1174.168701	3681.792725	1736.222412	22.413795
300.986328	1224.230225	3520.230713	1752.151001	22.993061
301.359314	1094.525513	3499.750977	1642.926025	22.800377
301.732239	1194.648438	3367.770752	1642.926025	20.628273
302.105103	1171.893188	3447.414063	1704.365112	23.400000
302.477997	1080.872437	3608.976074	1749.875488	26.462645
302.850830	1149.138062	3593.047363	1681.609863	21.787708
303.223602	1140.035889	3422.383301	1663.405762	22.931210
303.596375	1119.556274	3497.475586	1679.334351	23.540667
303.969116	1101.352051	3251.719238	1636.099487	24.867727
304.341766	1110.454102	3319.984863	1608.793213	22.554070
304.714478	1135.484863	3324.535889	1638.375000	22.972975
305.087067	1051.290649	3224.413086	1629.272949	26.596857
305.459656	1126.382813	3279.025391	1601.966675	22.093025
305.832214	1085.423462	3165.249512	1649.752563	27.133474
306.204681	1174.168701	3190.280273	1588.313477	20.541759
306.577148	1151.413574	3299.505127	1579.211426	19.915253
306.949646	1180.995239	3397.352539	1590.588989	18.480492
307.322021	1126.382813	3228.964111	1608.793213	22.943722
307.694397	1128.658325	3308.607178	1622.446289	22.651358
308.066742	1058.117188	3408.730225	1617.895264	23.814131
308.439026	1092.250000	3370.046387	1642.926025	24.175823
308.811279	1128.658325	3527.057129	1645.201538	21.537001
309.183502	1067.219238	3677.241699	1622.446289	21.272884
309.555695	1112.729614	3654.486328	1733.946899	24.440468
309.927887	1071.770264	3656.761963	1690.711914	23.943661
310.299988	1146.862427	3688.619141	1690.711914	21.396597
310.672058	1146.862427	3788.742188	1663.405762	19.552113
311.044128	1155.964600	3777.364502	1649.752563	18.836803
311.416168	1119.556274	3872.936523	1692.987427	20.826441
311.788147	1115.005249	3781.915527	1820.416626	26.450512
312.160065	1199.199463	3829.701416	1736.222412	20.415228
312.531982	1089.974487	3822.875000	1740.773438	23.813490
312.903870	1130.933838	3659.037354	1663.405762	21.062109
313.275696	1117.280762	3579.394287	1722.569214	24.584101
313.647491	1149.138062	3627.180176	1588.313477	17.722679
314.019318	1119.556274	3554.363525	1699.814087	23.831778
314.391022	1124.107300	3488.373291	1597.415649	20.019251
314.762726	1124.107300	3556.638916	1626.997314	20.673523
315.134369	1126.382813	3684.068115	1699.814087	22.419931
315.505981	1194.648438	3668.139648	1720.293701	21.251148
315.877594	1092.250000	3866.109863	1681.609863	21.246923
316.249146	1096.801025	3740.956299	1715.742676	23.407917
316.620636	1169.617676	3606.700439	1645.201538	19.514473
316.992157	1194.648438	3513.404053	1606.517700	17.762512
317.363586	1121.831787	3411.005615	1656.579102	23.359838
317.735016	1094.525513	3442.863037	1583.762451	20.833332
318.106354	1117.280762	3385.974854	1570.109375	19.959879
318.477722	1099.076538	3399.628174	1540.527588	19.188921
318.849060	1153.689087	3458.791504	1615.619751	20.039484
319.220306	1180.995239	3504.302002	1570.109375	16.748291
319.591522	1083.147949	3602.149414	1572.384888	19.421860
319.962738	1103.627563	3631.731201	1606.517700	19.891991
320.333923	1167.342163	3588.496338	1549.629639	15.789472
320.705017	1076.321289	3492.924316	1654.303589	23.917139
321.076111	1105.903076	3577.118652	1613.344238	20.534071
321.447144	1151.413574	3449.689453	1642.926025	21.386139
321.818176	1160.515625	3467.893799	1658.854614	21.597630
322.189178	1085.423462	3333.637939	1561.007324	21.153849
322.560120	1144.586914	3417.832275	1531.425537	17.017021
322.931030	1115.005249	3508.853027	1647.477051	22.243345
323.301910	1174.168701	3590.771729	1606.517700	17.890774
323.672729	1124.107300	3779.640137	1699.814087	21.679522
324.043549	1140.035889	3829.701416	1590.588989	16.751268
324.414337	1162.791138	3966.232666	1690.711914	18.831169
324.785095	1089.974487	4241.570801	1729.395752	20.288807
325.155792	1080.872437	4216.540039	1733.946899	20.827288
325.526428	1151.413574	4312.111816	1758.977539	19.222460
325.897034	1160.515625	4091.386475	1704.365112	18.555901
326.267670	1078.596802	4116.416992	1672.507813	19.550564
326.638184	1165.066650	3959.406250	1768.079712	21.579805
327.008728	1083.147949	4152.825684	1633.823975	17.939213
327.379211	1101.352051	4064.080078	1708.916138	20.506914
327.749634	1103.627563	4043.600586	1683.885376	19.736841
328.120026	1133.209351	4077.733398	1679.334351	18.547140
328.490417	1115.005249	3841.079102	1677.058838	20.617695
328.860748	1058.117188	3982.161377	1581.486938	17.898832
329.231079	1105.903076	3809.221924	1677.058838	21.127947
329.601318	1171.893188	3797.844238	1656.579102	18.457537
329.971558	1076.321289	3879.762939	1615.619751	19.237015
330.341736	1130.933838	3941.202148	1642.926025	18.218622
330.711914	1133.209351	3925.273438	1738.497925	21.678894
331.082062	1155.964600	4007.192139	1688.436401	18.675177
331.452148	1212.852539	3968.508301	1708.916138	18.001654
331.822174	1137.760376	3943.477539	1674.783325	19.140308
332.192200	1169.617676	4064.080078	1679.334351	17.610064
332.562134	1121.831787	4084.559814	1713.467163	19.969276
332.932129	1119.556274	4134.621094	1667.956787	18.188681
333.302063	1144.586914	4282.530273	1729.395752	18.636692
333.671906	1174.168701	4325.765137	1697.538574	16.606501
334.041718	1126.382813	4314.387207	1665.681274	16.916491
334.411499	1103.627563	4362.173340	1672.507813	17.458101
334.781281	1117.280762	4318.938477	1743.048950	19.545132
335.151001	1160.515625	4423.612305	1702.089600	16.596933
335.520721	1135.484863	4198.335938	1740.773438	19.762259
335.890350	1126.382813	4266.601563	1683.885376	17.753622
336.259979	1174.168701	4355.346680	1667.956787	15.522178
336.629547	1135.484863	4382.652832	1786.283813	20.042048
336.999084	1144.586914	4273.428223	1699.814087	17.745457
337.368622	1165.066650	4419.061523	1699.814087	16.433567
337.738098	1096.801025	4421.336914	1706.640625	18.343601
338.107513	1112.729614	4328.040527	1704.365112	18.400568
338.476898	1165.066650	4355.346680	1649.752563	15.192582
338.846252	1087.698975	4371.275391	1688.436401	18.295218
339.215576	1080.872437	4507.806641	1711.191650	18.393095
339.584869	1124.107300	4243.846191	1656.579102	17.067833
339.954132	1137.760376	4485.051270	1652.028076	15.363699
340.323334	1035.361938	4312.111816	1727.120239	21.111111
340.692505	1126.382813	4237.019531	1633.823975	16.313097
341.061646	1130.933838	4082.284424	1617.895264	16.499613
341.430786	1130.933838	4300.734375	1661.130127	16.726488
341.799896	1146.862427	4382.652832	1727.120239	17.932489
342.168915	1108.178589	4437.265625	1768.079712	19.822287
342.537903	1158.240112	4523.735352	1697.538574	16.024342
342.906830	1062.668213	4566.970215	1720.293701	18.766233
343.275757	1108.178589	4687.572754	1736.222412	17.546093
343.644684	1176.444214	4758.113770	1774.906250	16.709024
344.013550	1155.964600	4849.134766	1699.814087	14.725817
344.382355	1140.035889	4749.011719	1747.599976	16.834806
344.751129	1117.280762	5090.339844	1802.212524	17.239405
345.119873	1142.311401	5306.514648	1911.437500	18.469946
345.488586	1126.382813	5304.238770	1834.069824	16.938999
345.857269	1169.617676	5497.658203	1718.018188	12.670873
346.225891	1126.382813	5720.659180	1849.998413	15.750372
346.594482	1178.719727	5527.240234	1856.824951	15.593929
346.963043	976.198425	5600.056641	1824.967651	18.356298
347.331543	1074.045776	5397.535156	1827.243164	17.421053
347.700043	1115.005249	5254.177734	1777.181763	15.997800
348.068512	1135.484863	5133.574707	1690.711914	13.887308
348.436951	1080.872437	5067.584961	1740.773438	16.552511
348.805328	1105.903076	4824.104004	1799.937012	18.665854
349.173645	1153.689087	4846.859375	1738.497925	15.834873
349.541931	1169.617676	4924.227051	1706.640625	14.303031
349.910217	1096.801025	4937.880371	1706.640625	15.876777
350.278473	1085.423462	5147.228027	1708.916138	15.350140
350.646667	1092.250000	5026.625488	1779.457275	17.466743
351.014801	1128.658325	5249.626465	1752.151001	15.129762
351.382935	1144.586914	5279.208496	1852.273926	17.116125
351.751007	1087.698975	5204.116211	1727.120239	15.533442
352.119049	1140.035889	5267.830566	1774.906250	15.380376
352.487091	1112.729614	5315.616699	1818.141113	16.783974
352.855072	1069.494751	5440.770020	1781.732788	16.293598
353.222992	1149.138062	5192.738281	1834.069824	16.938662
353.590881	1201.474976	5565.923828	1806.763550	13.868614
353.958740	1126.382813	5556.821777	1761.253052	14.329737
354.326599	1158.240112	5759.343262	1820.416626	14.391690
354.694397	1121.831787	5825.333008	1834.069824	15.142721
355.062134	1140.035889	6059.711914	1915.988525	15.772434
355.429840	1133.209351	6241.753418	1868.202637	14.387530
355.797516	1103.627563	6294.090332	1913.713013	15.607191
356.165192	1167.342163	6118.875488	1790.834839	12.591911
356.532776	1160.515625	6512.540527	1941.019287	14.583334
356.900360	1135.484863	6608.112305	1884.131226	13.679834
357.267883	1101.352051	6705.959961	1847.722900	13.317093
357.635376	1124.107300	7195.196777	1950.121338	13.605698
358.002808	1144.586914	7529.698242	1995.631714	13.328582
358.370270	1128.658325	7525.147461	2020.662476	13.945214
358.737640	1117.280762	7591.137207	2018.386963	13.919156
359.105011	1115.005249	7613.892578	2043.417725	14.285714
359.472321	1137.760376	7504.667480	2034.315552	14.081487
359.839569	1165.066650	7406.820313	2045.693237	14.108640
360.206787	1099.076538	7174.717285	2022.937988	15.205993
360.574005	1121.831787	7306.697266	2079.825928	15.489329
360.941193	1108.178589	8005.282227	2129.887451	14.813593
361.308319	1180.995239	8314.752930	2063.897461	12.376397
361.675415	1071.770264	8747.101563	2086.652588	13.222652
362.042450	1201.474976	9238.614258	2227.734863	12.768970
362.409424	1135.484863	9655.035156	2286.898438	13.514956
362.776428	1099.076538	10223.915039	2225.459229	12.344138
363.143402	1049.015137	9670.963867	2286.898438	14.357348
363.510284	1144.586914	8986.031250	2214.081787	13.639004
363.877136	1096.801025	8194.150391	2059.346436	13.562040
364.243988	1146.862427	7582.035156	2077.550537	14.462520
364.610779	1103.627563	7247.533691	1925.090576	13.370370
364.977539	1146.862427	7361.309570	1920.539551	12.449653
365.344269	1137.760376	6928.960938	1888.682251	12.966600
365.710938	1140.035889	6940.338379	1950.121338	13.966262
366.077576	1153.689087	6803.807129	1918.264038	13.532017
366.444183	1089.974487	6742.368164	1854.549438	13.526569
366.810760	1142.311401	6580.806152	1929.641602	14.476988
367.177277	1103.627563	6665.000488	1941.019287	15.057283
367.543823	1062.668213	6787.878418	1836.345337	13.513515
367.910248	1094.525513	6567.152832	1815.865601	13.180873
368.276642	1146.862427	6617.214355	1888.682251	13.560733
368.643036	1180.995239	6564.877441	1909.161987	13.524938
369.009399	1128.658325	6485.234375	1811.314575	12.744265
369.375671	1121.831787	6321.396973	1859.100464	14.179429
369.741974	1153.689087	6398.764648	1836.345337	13.015184
370.108215	1064.943726	6514.815918	1770.355225	12.943634
370.474396	1105.903076	6341.876465	1799.937012	13.255108
370.840546	1135.484863	6419.244141	1847.722900	13.479759
371.206665	1115.005249	6437.448242	1788.559326	12.654980
371.572784	1155.964600	6621.765625	1811.314575	11.990008
371.938843	1105.903076	6726.439453	1836.345337	12.995954
372.304840	1076.321289	6767.398926	1865.927002	13.874450
372.670807	1165.066650	6776.500977	1904.610962	13.179238
373.036713	1231.056763	6899.378906	1875.029175	11.360900
373.402649	1110.454102	6678.653320	1845.447388	13.199839
373.768524	1083.147949	6771.949707	1879.580200	14.000000
374.134308	1135.484863	6851.593262	1797.661377	11.584394
374.500122	1144.586914	6865.246094	1818.141113	11.774066
374.865875	1060.392700	6944.889648	1863.651489	13.650424
375.231567	1158.240112	6799.256348	1859.100464	12.424363
375.597260	1128.658325	7097.349609	1852.273926	12.123522
375.962891	1087.698975	7308.972656	1818.141113	11.741039
376.328461	1201.474976	7242.982910	1879.580200	11.224106
376.694031	1092.250000	7393.166992	1875.029175	12.423258
377.059540	1092.250000	7786.832031	1927.366089	12.474506
377.425049	1087.698975	8210.079102	2000.182739	12.811501
377.790497	1115.005249	8298.824219	2063.897461	13.208744
378.155945	1101.352051	8606.019531	1984.254150	11.764707
378.521301	1099.076538	8460.386719	1975.152100	11.901082
378.886597	1076.321289	8371.640625	2011.560425	12.819715
379.251892	1117.280762	8016.659668	1945.570313	12.005277
379.617157	1078.596802	7784.556641	1774.906250	10.383442
379.982422	1110.454102	7682.158203	1852.273926	11.288089
380.347595	1051.290649	7456.881836	1813.590088	11.900532
380.712738	1119.556274	7370.412109	1774.906250	10.484164
381.077820	1128.658325	7481.912598	1895.508789	12.070199
381.442902	1130.933838	7402.269043	1890.957764	12.119014
381.807953	1153.689087	7545.626953	1795.385864	10.039159
382.172974	1112.729614	7363.585449	1827.243164	11.430652
382.537933	1069.494751	7356.758789	1843.171875	12.305466
382.902832	1176.444214	7493.290039	1847.722900	10.626802
383.267700	1142.311401	7616.167969	1829.518677	10.615114
383.632538	1105.903076	7620.719238	1918.264038	12.469438
383.997345	1153.689087	7739.046387	1893.233276	11.230130
384.362152	1026.259888	8103.129395	1840.896362	11.511254
384.726898	1089.974487	8080.374512	1881.855713	11.328125
385.091553	1133.209351	8212.354492	1886.406738	10.639666
385.456238	1108.178589	8175.946289	1815.865601	10.012879
385.820862	1133.209351	8094.027344	1952.396851	11.768553
386.185425	1117.280762	8212.354492	1925.090576	11.385503
386.549988	1092.250000	8296.548828	1843.171875	10.423247
386.914490	1155.964600	8580.989258	1890.957764	9.898866
387.278961	1199.199463	8560.508789	1881.855713	9.273571
387.643372	1210.577026	8635.601563	1877.304688	8.979467
388.007782	1115.005249	8535.478516	1966.049927	11.468873
388.372101	1146.862427	8592.366211	1900.059814	10.116138
388.736450	1119.556274	8646.979492	1906.886475	10.459492
389.100739	1151.413574	8631.050781	1888.682251	9.857011
389.464966	1137.760376	8426.253906	1861.375977	9.928191
389.829163	1135.484863	8369.365234	1911.437500	10.726645
390.193329	1053.566162	8526.375977	1865.927002	10.870889
390.557495	1105.903076	8478.590820	1938.743774	11.296297
390.921570	1146.862427	8590.090820	1922.815063	10.424947
391.285614	1085.423462	8883.632813	1877.304688	10.154655
391.649597	1055.841675	9202.206055	1934.192627	10.782123
392.013550	1064.943726	9568.565430	1963.774414	10.569975
392.377502	1058.117188	9871.208984	1997.907227	10.663568
392.741455	1176.444214	9925.821289	1895.508789	8.218466
393.105316	1080.872437	9859.832031	1941.019287	9.797822
393.469086	1151.413574	9618.625977	1986.529663	9.862940
393.832886	1062.668213	9641.381836	2020.662476	11.167109
394.196655	1130.933838	9586.769531	1966.049927	9.876209
394.560333	1124.107300	9773.362305	1979.703125	9.892134
394.924042	1160.515625	9937.199219	2009.284912	9.670729
395.287659	1142.311401	9975.882813	2018.386963	9.917569
395.651245	1128.658325	9814.321289	1947.845825	9.431491
396.014771	1146.862427	9434.309570	1831.794189	8.264689
396.378296	1105.903076	9108.910156	1868.202637	9.525165
396.741791	1099.076538	9036.092773	1904.610962	10.149084
397.105255	1130.933838	8890.459961	1872.753662	9.560118
397.468628	1137.760376	8617.397461	1859.100464	9.644052
397.832001	1089.974487	8653.805664	1895.508789	10.649818
398.195313	1064.943726	8692.489258	1813.590088	9.815037
398.558624	1042.188477	8854.051758	1802.212524	9.729101
398.921844	1137.760376	8774.408203	1904.610962	10.041718
399.285095	1135.484863	8672.009766	1854.549438	9.541062
399.648254	1160.515625	8926.868164	1831.794189	8.643421
400.011383	1037.637451	8958.725586	1872.753662	10.542949
400.374451	1158.240112	8801.714844	1893.233276	9.615956
400.737549	1135.484863	8815.367188	1815.865601	8.859260
401.100586	1158.240112	8617.397461	1838.620850	9.121416
401.463562	1121.831787	8844.949219	1856.824951	9.516794
401.826508	1117.280762	8988.307617	1884.131226	9.742699
402.189392	1121.831787	8797.163086	1879.580200	9.872518
402.552246	1158.240112	8883.632813	1768.079712	7.893962
402.915070	1089.974487	8963.276367	1799.937012	9.017342
403.277893	1112.729614	9231.788086	1831.794189	8.856502
403.640656	1103.627563	9359.216797	1824.967651	8.737597
404.003326	1167.342163	9682.340820	1945.570313	9.139498
404.366028	1174.168701	9789.290039	1915.988525	8.610672
404.728699	1117.280762	10121.516602	1915.988525	8.870356
405.091248	1149.138062	10430.987305	1900.059814	8.090217
405.453857	1119.556274	10622.130859	1945.570313	8.692529
405.816345	1105.903076	10394.579102	1956.947876	9.162176
406.178833	1121.831787	10248.945313	1988.805176	9.498878
406.541260	1115.005249	10394.579102	1997.907227	9.514466
406.903687	1171.893188	10085.108398	1977.427612	9.037530
407.266052	1203.750488	9932.648438	1934.192627	8.368091
407.628387	1174.168701	9880.311523	1865.927002	7.945635
407.990662	1153.689087	9684.616211	1877.304688	8.482263
408.352905	1126.382813	9896.240234	1915.988525	9.003633
408.715118	1117.280762	9914.444336	1904.610962	8.949819
409.077332	1130.933838	9529.880859	1802.212524	7.992414
409.439484	1167.342163	9816.596680	1947.845825	9.023941
409.801575	1146.862427	9764.259766	1931.917114	9.110113
410.163605	1167.342163	9809.770508	1852.273926	7.925223
410.525635	1169.617676	10219.364258	1929.641602	8.398290
410.887604	1160.515625	10114.690430	1829.518677	7.471409
411.249573	1169.617676	10349.068359	1906.886475	8.031731
411.611481	1046.739624	10235.292969	1927.366089	9.583951
411.973328	1169.617676	10267.149414	1931.917114	8.379190
412.335144	1126.382813	10201.160156	1936.468262	8.926781
412.696930	1115.005249	10219.364258	1834.069824	7.898025
413.058685	1096.801025	10103.312500	1845.447388	8.312279
413.420410	1185.546387	10155.649414	1934.192627	8.346016
413.782104	1103.627563	9934.923828	1893.233276	8.940995
414.143707	1101.352051	10221.639648	1838.620850	8.083833
414.505310	1199.199463	10246.669922	1831.794189	6.991951
414.866852	1158.240112	10201.160156	1897.784302	8.178157
415.228394	1112.729614	10567.518555	1943.294800	8.784597
415.589874	1071.770264	10681.294922	1954.672363	9.187781
415.951324	1151.413574	10544.763672	1929.641602	8.284883
416.312683	1196.923950	11029.449219	2086.652588	9.048831
416.674072	1169.617676	11241.073242	2043.417725	8.676006
417.035370	1162.791138	11332.093750	2032.040039	8.547772
417.396667	1089.974487	11839.535156	2118.509766	9.568161
417.757935	1062.668213	11850.912109	1966.049927	8.373760
418.119141	1108.178589	12192.240234	2102.581299	8.971465
418.480286	1135.484863	12686.028320	2141.265137	8.707645
418.841400	1158.240112	13109.275391	2189.051025	8.625285
419.202484	1144.586914	13525.695313	2157.193604	8.178643
419.563568	1049.015137	14215.178711	2255.041016	9.160040
419.924591	1133.209351	14847.773438	2296.000488	8.478513
420.285553	1089.974487	14786.333984	2241.387939	8.406712
420.646484	1124.107300	16060.625977	2311.929199	7.952468
421.007355	1076.321289	16636.332031	2393.847900	8.467389
421.368225	1171.893188	17164.253906	2487.144287	8.224246
421.729065	1151.413574	17617.082031	2478.042236	8.056938
422.089874	1092.250000	18195.064453	2521.277100	8.355509
422.450592	1099.076538	18108.593750	2582.716064	8.722408
422.811279	1074.045776	18092.666016	2523.552490	8.517180
423.171936	1151.413574	17962.960938	2498.521729	8.012994
423.532593	1103.627563	17792.296875	2498.521729	8.358331
423.893127	1101.352051	17967.511719	2612.297852	8.958446
424.253723	1203.750488	18302.013672	2534.930176	7.785467
424.614197	1151.413574	18393.035156	2464.388916	7.615150
424.974670	1110.454102	18729.812500	2557.685303	8.213870
425.335052	1108.178589	19203.119141	2553.134277	7.985413
425.695496	1144.586914	18263.330078	2582.716064	8.400905
426.055817	1162.791138	18358.902344	2505.348389	7.807331
426.416168	1140.035889	18479.503906	2578.165039	8.293963
426.776398	1130.933838	17225.693359	2482.593262	8.398133
427.136627	1076.321289	16615.853516	2427.980713	8.698199
427.496826	1212.852539	16404.228516	2457.562500	8.193530
427.856995	1124.107300	15714.747070	2446.184814	9.061134
428.217102	1074.045776	15057.121094	2389.296875	9.406022
428.577179	1067.219238	15182.274414	2348.337402	9.076254
428.937195	1108.178589	14877.355469	2239.112549	8.213519
429.297180	1185.546387	14313.025391	2216.357178	7.852314
429.657135	1165.066650	14167.392578	2218.632813	8.102905
430.017059	1130.933838	14408.597656	2232.285889	8.294773
430.376984	1124.107300	14117.331055	2177.673340	8.108581
430.736786	1108.178589	13805.584961	2252.765625	9.014338
431.096588	1151.413574	13566.655273	2161.744873	8.137830
431.456360	1133.209351	13876.125977	2255.041016	8.803571
431.816071	1130.933838	13266.286133	2241.387939	9.150572
432.175781	1124.107300	13630.369141	2175.397949	8.406115
432.535400	1108.178589	13589.410156	2220.908203	8.915223
432.895020	1110.454102	13659.951172	2152.642578	8.304624
433.254578	1096.801025	13659.951172	2132.163086	8.241261
433.614105	1055.841675	14055.891602	2098.030273	8.016805
433.973602	1094.525513	14492.791992	2230.010498	8.474865
434.333038	1119.556274	14215.178711	2323.306641	9.192006
434.692444	1115.005249	14588.364258	2252.765625	8.444519
435.051819	1062.668213	14688.486328	2214.081787	8.450234
435.411133	1110.454102	14825.017578	2227.734863	8.146674
435.770416	1096.801025	13978.524414	2170.846924	8.337749
436.129669	1099.076538	14740.824219	2350.613037	9.174312
436.488861	1062.668213	14283.444336	2352.888428	9.759035
436.848083	1180.995239	14151.463867	2179.948975	7.701755
437.207184	1199.199463	14219.729492	2250.489990	8.074100
437.566254	1135.484863	14490.516602	2302.827148	8.740843
437.925293	1110.454102	14465.485352	2175.397949	7.974102
438.284363	1146.862427	14474.587891	2327.857666	8.861191
438.643311	1121.831787	14895.559570	2298.276123	8.541220
439.002258	1140.035889	14784.058594	2259.592041	8.205470
439.361145	1260.638550	15532.705078	2325.582275	7.461735
439.719971	1124.107300	16067.452148	2359.715088	8.268616
440.078827	1105.903076	16160.749023	2371.092773	8.403871
440.437592	1128.658325	16809.271484	2409.776611	8.170077
440.796295	1049.015137	16959.457031	2439.358398	8.738559
441.155029	1103.627563	17767.265625	2498.521729	8.370886
441.513672	1110.454102	18297.462891	2678.288086	9.122205
441.872253	1187.821899	18154.105469	2623.675537	8.462983
442.230865	1076.321289	17605.705078	2537.205811	8.838107
442.589386	1085.423462	17739.960938	2553.134277	8.812678
442.947876	1121.831787	17587.500000	2493.970703	8.333333
443.306335	1160.515625	17435.041016	2523.552490	8.375278
443.664764	1158.240112	16292.728516	2382.470215	8.089009
444.023102	1105.903076	16809.271484	2525.828125	9.042169
444.381500	1071.770264	16688.669922	2544.032227	9.427364
444.739777	1115.005249	16829.751953	2459.837891	8.557775
445.098022	1112.729614	17027.722656	2534.930176	8.936231
445.456238	1074.045776	16816.099609	2523.552490	9.207863
445.814423	1092.250000	17423.662109	2521.277100	8.750175
446.172577	1124.107300	18329.320313	2475.766602	7.856103
446.530701	1117.280762	18502.259766	2589.542725	8.468587
446.888733	1146.862427	18923.230469	2600.920166	8.179724
447.246765	1071.770264	19824.337891	2646.430664	8.397038
447.604736	1135.484863	19398.814453	2771.584229	8.958385
447.962677	1069.494751	19378.335938	2653.257324	8.650261
448.320587	1103.627563	19612.712891	2716.971924	8.716499
448.678436	1171.893188	19376.060547	2769.308838	8.775000
449.036255	1101.352051	19171.263672	2598.644775	8.286110
449.394043	1080.872437	18165.482422	2587.267090	8.817262
449.751770	1121.831787	18577.351563	2623.675537	8.603833
450.109467	1130.933838	18195.064453	2589.542725	8.547807
450.467163	1121.831787	17692.173828	2623.675537	9.063444
450.824768	1137.760376	17526.060547	2628.226563	9.094696
451.182343	1140.035889	17180.181641	2610.022461	9.164422
451.539886	1087.698975	16511.179688	2546.307861	9.457067
451.897369	1074.045776	16818.375000	2471.215576	8.874115
452.254822	1108.178589	16527.107422	2478.042236	8.884298
452.612274	1115.005249	17064.130859	2514.450439	8.774432
452.969635	1119.556274	16850.232422	2548.583252	9.084333
453.326965	1121.831787	16579.445313	2537.205811	9.156485
453.684326	1110.454102	16574.892578	2566.787354	9.417304
454.041534	1042.188477	16290.453125	2500.797363	9.565737
454.398773	1144.586914	15771.634766	2478.042236	9.116366
454.755951	1112.729614	15605.521484	2457.562500	9.279323
455.113098	1096.801025	15077.600586	2357.439453	9.016927
455.470215	1094.525513	15207.305664	2523.552490	10.125765
455.827240	1121.831787	15088.978516	2327.857666	8.634733
456.184265	1099.076538	15048.019531	2318.755615	8.743881
456.541260	1160.515625	14916.039063	2437.082764	9.280396
456.898193	1099.076538	15207.305664	2316.480225	8.629032
457.255096	1115.005249	15352.938477	2432.531738	9.253635
457.611969	1146.862427	15141.315430	2339.235352	8.520326
457.968781	1115.005249	15109.458008	2396.123291	9.154470
458.325531	1149.138062	15318.805664	2402.949951	8.848562
458.682312	1137.760376	16374.647461	2473.491211	8.766429
459.039001	1128.658325	16679.568359	2427.980713	8.355282
459.395630	1176.444214	17664.867188	2644.155273	8.901464
459.752289	1128.658325	18577.351563	2685.114502	8.920188
460.108856	1115.005249	20338.605469	2873.982666	9.150094
460.465363	1190.097412	20923.414063	2796.614990	8.141144
460.821899	1112.729614	21157.792969	2935.421875	9.092974
461.178345	1124.107300	20495.615234	2798.890625	8.645601
461.534760	1069.494751	20183.869141	2769.308838	8.892858
461.891144	1074.045776	19822.062500	2776.135498	9.078772
462.247467	1130.933838	18272.431641	2669.185791	8.973847
462.603760	1108.178589	18226.921875	2628.226563	8.879436
462.960052	1076.321289	17271.203125	2557.685303	9.147112
463.316254	1042.188477	16859.333984	2509.899414	9.279241
463.672424	1128.658325	16349.617188	2519.001465	9.134399
464.028564	1112.729614	16115.238281	2562.236328	9.661762
464.384644	1121.831787	16010.564453	2484.868652	9.154821
464.740723	1087.698975	15917.267578	2514.450439	9.620991
465.096741	1078.596802	16167.575195	2548.583252	9.742121
465.452698	1160.515625	15687.440430	2516.726074	9.335840
465.808655	1080.872437	15869.482422	2580.440674	10.140021
466.164520	1176.444214	15928.645508	2537.205811	9.224126
466.520355	1149.138062	16392.851563	2432.531738	8.419167
466.876190	1080.872437	16515.730469	2519.001465	9.317410
467.231964	1124.107300	16388.300781	2573.614014	9.496124
467.587677	1210.577026	17095.988281	2660.083740	9.124766
467.943390	1153.689087	17398.632813	2632.777588	9.104917
468.299011	1165.066650	16822.925781	2569.062988	8.966720
468.654633	1060.392700	16722.802734	2550.858887	9.516199
469.010223	1121.831787	16768.312500	2500.797363	8.813264
469.365723	1135.484863	16190.330078	2503.072998	9.084040
469.721191	1169.617676	16538.484375	2491.695313	8.602310
470.076660	1110.454102	15651.032227	2459.837891	9.280125
470.432068	1092.250000	16035.594727	2516.726074	9.532512
470.787445	1130.933838	15753.430664	2473.491211	9.181451
471.142792	1135.484863	15707.919922	2541.756836	9.650219
471.498016	1130.933838	16269.973633	2441.633789	8.657748
471.853271	1153.689087	16044.697266	2425.705078	8.542175
472.208496	1064.943726	15944.574219	2471.215576	9.450986
472.563660	1137.760376	16101.584961	2489.419678	9.032846
472.918762	1130.933838	16356.443359	2562.236328	9.400687
473.273865	1155.964600	16870.710938	2589.542725	9.122502
473.628876	1108.178589	17596.601563	2564.511963	8.832459
473.983917	1128.658325	17155.150391	2589.542725	9.115435
474.338837	1144.586914	17239.345703	2612.297852	9.119185
474.693787	1160.515625	17255.273438	2721.522949	9.698855
475.048645	1062.668213	17146.048828	2509.899414	8.998302
475.403503	1146.862427	17264.376953	2487.144287	8.315685
475.758270	1069.494751	17598.876953	2655.532715	9.595264
476.113037	1117.280762	17073.232422	2594.093750	9.255562
476.467773	1155.964600	17755.888672	2703.318604	9.321452
476.822418	1187.821899	18370.279297	2787.512939	9.310025
477.177063	1162.791138	18236.023438	2771.584229	9.422897
477.531647	1085.423462	18741.189453	2785.237549	9.627530
477.886200	1117.280762	19159.884766	2705.594238	8.803128
478.240723	1053.566162	19487.560547	2796.614990	9.455622
478.595184	1221.954712	19899.429688	2819.370361	8.552632
478.949585	1105.903076	20202.074219	2826.196777	9.008579
479.303986	1144.586914	20570.708984	2910.391113	9.089845
479.658325	1067.219238	20618.494141	2976.381104	9.764896
480.012634	1039.912964	20866.525391	2860.329590	9.181683
480.366913	1124.107300	21510.498047	2994.585449	9.175132
480.721130	1117.280762	21774.458984	3112.912354	9.660718
481.075317	1185.546387	22186.328125	3110.636963	9.166757
481.429474	1174.168701	23121.566406	3144.769775	8.978745
481.783569	1169.617676	23977.162109	3235.790527	9.059164
482.137604	1108.178589	25519.964844	3395.077148	9.368010
482.491669	1030.810913	27715.843750	3527.057129	9.354480
482.845612	1158.240112	30471.500000	3838.803711	9.144543
483.199554	1099.076538	34078.199219	4186.958496	9.363142
483.553436	1228.781250	39191.292969	4719.430176	9.194989
483.907318	1076.321289	46238.582031	5331.545410	9.422079
484.261139	1124.107300	52971.847656	5943.660156	9.295588
484.614899	1174.168701	56059.730469	6184.865723	9.129354
484.968628	1185.546387	56178.058594	6348.703125	9.388836
485.322357	1128.658325	54141.464844	6139.354980	9.451861
485.675964	1133.209351	50912.503906	5882.221191	9.540135
486.029572	1083.147949	47458.261719	5408.913086	9.327773
486.383148	1137.760376	44158.757813	4997.043457	8.970697
486.736694	1190.097412	42135.820313	4928.777832	9.130820
487.090149	1153.689087	41844.550781	4794.522461	8.947545
487.443604	1121.831787	42311.035156	4860.512207	9.076846
487.796997	1180.995239	43730.957031	5001.594727	8.979091
488.150360	1060.392700	45353.406250	5047.104980	9.000771
488.503693	1115.005249	45690.183594	5404.361816	9.622746
488.856964	1153.689087	45214.597656	5204.116211	9.192791
489.210175	1080.872437	43407.835938	4903.747559	9.031772
489.563416	1101.352051	41471.367188	4701.226074	8.917197
489.916565	1060.392700	39239.082031	4491.877930	8.987961
490.269653	1160.515625	36629.058594	4364.448730	9.033168
490.622772	1099.076538	35306.980469	4198.335938	9.060068
490.975769	1165.066650	35072.601563	4230.193359	9.039662
491.328735	1121.831787	36212.636719	4214.264648	8.812658
491.681732	1069.494751	38310.667969	4396.306152	8.933155
492.034607	1083.147949	39716.941406	4655.715332	9.247260
492.387482	1185.546387	40822.843750	4714.878906	8.904070
492.740326	1119.556274	40385.941406	4698.950684	9.115671
493.093079	1135.484863	38711.160156	4808.175293	9.774117
493.445862	1103.627563	35589.144531	4387.204102	9.521611
493.798523	1176.444214	33186.195313	4109.590332	9.163289
494.151215	1128.658325	30680.847656	3820.599365	9.109108
494.503815	1076.321289	28628.328125	3565.741211	9.035349
494.856384	1151.413574	27258.462891	3458.791504	8.838141
495.208923	1074.045776	25824.884766	3467.893799	9.671785
495.561432	1021.708862	24709.880859	3313.158203	9.673389
495.913879	1162.791138	24639.339844	3281.301025	9.023940
496.266296	1051.290649	24532.390625	3249.443604	9.361371
496.618683	1155.964600	24648.441406	3276.750000	9.027509
496.970978	1180.995239	25073.962891	3283.576416	8.800000
497.323273	1180.995239	24837.308594	3306.331787	8.984225
497.675507	1140.035889	25403.914063	3281.301025	8.824908
498.027710	1092.250000	25426.669922	3265.372314	8.930241
498.379852	1133.209351	25199.117188	3192.555664	8.557110
498.731995	1249.260864	25349.300781	3228.964111	8.214523
499.084076	1233.332275	24147.826172	3272.198975	8.897717
499.436096	1135.484863	24684.849609	3203.933350	8.783458
499.788086	1158.240112	23786.019531	3190.280273	8.980289
500.140106	1228.781250	23654.039063	3215.310791	8.858447
500.491943	1160.515625	22611.849609	3110.636963	9.090909
500.843842	1151.413574	22413.880859	3110.636963	9.214469
501.195679	1133.209351	22154.470703	2974.105713	8.757307
501.547455	1103.627563	21685.712891	3021.891602	9.320066
501.899231	1103.627563	21556.007813	2960.452637	9.078773
502.250885	1064.943726	21298.875000	3026.442627	9.694107
502.602600	1115.005249	20868.800781	2937.697266	9.227047
502.954193	1076.321289	21328.457031	2880.809326	8.910111
503.305786	1064.943726	21307.976563	2869.431641	8.914118
503.657379	1103.627563	21460.437500	3092.432861	9.769730
504.008820	1146.862427	20850.597656	2980.932129	9.308234
504.360291	1135.484863	21296.599609	2971.830078	9.108352
504.711700	1074.045776	21408.099609	2996.860840	9.456132
505.063080	1108.178589	21615.171875	2996.860840	9.209942
505.414368	1128.658325	21521.875000	3033.269287	9.339434
505.765656	1119.556274	21394.447266	2862.605225	8.597082
506.116943	1151.413574	21774.458984	2837.574463	8.176101
506.468109	1171.893188	21282.945313	2830.747803	8.248472
506.819305	1101.352051	21182.822266	3037.820313	9.643060
507.170410	1096.801025	20952.996094	2960.452637	9.385744
507.521484	1174.168701	21203.302734	2971.830078	8.975232
507.872559	1155.964600	21708.468750	2976.381104	8.857395
508.223480	1162.791138	21733.500000	2887.635986	8.384955
508.574493	1183.270874	21692.539063	2924.044189	8.487740
508.925385	1103.627563	22197.705078	3067.402100	9.309601
509.276245	1105.903076	22397.951172	3119.739014	9.458159
509.627045	1128.658325	22477.593750	3017.340576	8.846728
509.977814	1087.698975	22905.392578	3042.371338	8.959116
510.328613	1165.066650	22816.646484	3103.810303	8.954283
510.679260	1119.556274	23030.546875	3069.677490	8.900197
511.029999	1137.760376	23233.068359	3005.962891	8.455200
511.380585	1126.382813	23055.576172	3156.147461	9.255993
511.731140	1153.689087	23608.527344	3112.912354	8.725172
512.081726	1151.413574	23781.468750	3244.892578	9.250879
512.432129	1078.596802	24288.908203	3203.933350	9.156863
512.782654	1076.321289	23997.642578	3256.270264	9.510573
513.133057	1149.138062	24323.041016	3074.228516	8.307148
513.483398	1162.791138	23963.509766	3206.208740	8.962075
513.833801	1149.138062	24245.673828	3301.780762	9.320197
514.183960	1235.607788	23624.457031	3158.422852	8.588271
514.534302	1099.076538	23799.671875	3094.708252	8.791099
514.884460	1105.903076	23524.333984	3274.474365	9.673162
515.234619	1085.423462	23360.496094	3217.586426	9.571969
515.584717	1076.321289	23663.140625	3215.310791	9.470078
515.934753	1110.454102	23610.804688	3213.035400	9.344660
516.284851	1108.178589	23558.466797	3076.504150	8.767485
516.634766	1089.974487	24161.480469	3260.821289	9.409211
516.984741	1069.494751	24311.664063	3247.168213	9.369493
517.334595	1067.219238	24819.105469	3374.597412	9.714505
517.684448	1158.240112	25633.742188	3274.474365	8.646337
518.034363	1039.912964	26398.316406	3486.097900	9.646447
518.384094	1142.311401	27431.402344	3638.557861	9.495370
518.733826	1171.893188	28783.062500	3756.884766	9.362123
519.083496	1085.423462	29151.697266	3711.374512	9.356252
519.433167	1126.382813	30034.599609	3684.068115	8.847607
519.782776	1149.138062	29845.730469	3827.426025	9.333122
520.132324	1105.903076	29472.544922	3816.048340	9.553987
520.481873	1146.862427	28835.400391	3834.252441	9.705786
520.831299	1130.933838	28207.355469	3699.996826	9.488193
521.180786	1094.525513	27611.169922	3508.853027	9.104952
521.530151	1085.423462	26832.941406	3549.812500	9.571366
521.879517	1167.342163	26209.449219	3520.230713	9.395729
522.228882	1087.698975	26798.808594	3431.485352	9.115850
522.578064	1167.342163	26188.968750	3574.843262	9.621680
522.927307	1144.586914	26498.439453	3586.220703	9.630228
523.276489	1055.841675	26211.724609	3426.934326	9.425599
523.625610	1069.494751	26625.869141	3472.444824	9.402547
523.974792	1146.862427	27244.810547	3565.741211	9.268464
524.323792	1119.556274	26987.675781	3624.904541	9.685081
524.672852	1130.933838	27533.800781	3545.261475	9.144187
525.021790	1083.147949	28635.154297	3759.160400	9.712586
525.370728	1092.250000	29734.230469	3795.568604	9.438309
525.719604	1171.893188	31470.453125	3998.090088	9.327826
526.068420	1171.893188	33006.429688	4075.457764	9.120800
526.417297	1165.066650	34314.855469	4145.999023	8.992311
526.765991	1037.637451	35332.011719	4234.744141	9.322539
527.114746	1083.147949	36481.148438	4500.979980	9.655438
527.463379	1146.862427	38099.042969	4471.398438	8.996861
527.812012	1155.964600	40194.800781	4783.144531	9.291209
528.160706	1155.964600	43064.230469	5210.942871	9.675843
528.509155	1180.995239	47123.761719	5479.454102	9.356117
528.857727	1151.413574	52205.000000	6093.844727	9.680870
529.206177	1140.035889	55520.433594	6564.877441	9.975730
529.554565	1076.321289	56421.539063	6608.112305	9.995066
529.902893	1135.484863	55429.410156	6387.386719	9.673093
530.251221	1080.872437	53292.695313	6180.314453	9.766833
530.599548	1112.729614	49820.253906	5820.782227	9.665966
530.947876	1142.311401	46748.300781	5301.963379	9.120846
531.296021	1142.311401	43280.406250	5206.391602	9.644670
531.644165	1194.648438	40602.117188	4855.961426	9.290912
531.992249	1103.627563	38679.300781	4646.613281	9.428935
532.340454	1121.831787	37277.582031	4498.704590	9.339795
532.688354	1149.138062	36927.152344	4523.735352	9.432041
533.036438	1117.280762	38023.953125	4646.613281	9.562858
533.384338	1201.474976	39753.347656	4780.869141	9.284618
533.732239	1053.566162	41334.835938	4983.390625	9.755960
534.080139	1219.679199	42292.828125	5142.677246	9.551248
534.427917	1133.209351	41801.316406	4997.043457	9.500895
534.775757	1128.658325	40153.839844	4796.797852	9.399418
535.123474	1178.719727	38340.250000	4721.705566	9.534015
535.471191	1185.546387	36497.078125	4551.041504	9.530868
535.818848	1194.648438	35627.828125	4555.592773	9.760773
536.166382	1071.770264	34335.332031	4341.693848	9.830347
536.513977	1044.463989	34048.617188	4425.888184	10.245451
536.861511	1162.791138	34137.363281	4366.724609	9.716377
537.208984	1051.290649	34396.773438	4389.479492	10.010918
537.556396	1185.546387	33971.250000	4196.060547	9.182399
537.903809	1105.903076	33286.316406	4223.366699	9.687456
538.251160	1149.138062	32298.742188	4116.416992	9.525896
538.598389	1176.444214	31688.902344	4202.886719	9.918710
538.945740	1085.423462	30273.529297	4036.773926	10.111484
539.292969	1135.484863	29722.853516	3941.202148	9.814535
539.640137	1076.321289	29379.250000	3941.202148	10.122206
539.987244	1133.209351	29527.158203	3959.406250	9.953518
540.334351	1119.556274	30134.722656	4111.866211	10.312918
540.681458	1080.872437	31845.914063	4161.927734	10.014793
541.028442	1185.546387	34210.179688	4421.336914	9.798112
541.375366	1194.648438	37277.582031	4796.797852	9.982973
541.722290	1137.760376	40238.035156	5158.605469	10.283420
542.069153	1124.107300	43157.527344	5119.921875	9.506279
542.416016	1140.035889	42868.535156	5324.718750	10.028357
542.762756	1094.525513	42276.902344	5270.105957	10.139242
543.109558	1126.382813	40920.691406	5235.973145	10.327081
543.456299	1105.903076	39582.683594	4928.777832	9.935536
543.802917	1060.392700	38246.953125	4851.410156	10.194592
544.149536	1078.596802	36767.863281	4689.848145	10.118593
544.496094	1174.168701	34230.660156	4532.837402	10.160391
544.842651	1099.076538	32988.226563	4357.622559	10.218353
545.189148	1044.463989	31199.666016	4221.091309	10.534261
545.535583	1105.903076	29854.832031	4050.427002	10.242204
545.882019	1126.382813	29354.218750	3977.610352	10.100765
546.228333	1124.107300	28368.917969	3888.864990	10.147833
546.574707	1130.933838	28441.734375	3975.334961	10.414931
546.920898	1155.964600	28580.541016	3954.855225	10.205775
547.267212	1142.311401	28548.683594	3936.650879	10.195948
547.613342	1119.556274	28484.968750	4007.192139	10.552136
547.959473	1153.689087	27831.894531	3952.579590	10.491301
548.305664	1103.627563	27099.177734	3900.242676	10.758054
548.651611	1087.698975	26446.103516	3788.742188	10.651471
548.997742	1126.382813	25563.201172	3590.771729	10.084737
549.343689	1235.607788	24090.939453	3401.903564	9.478295
549.689575	1105.903076	23572.119141	3595.322754	11.080725
550.035522	1133.209351	22930.423828	3465.618164	10.700490
550.381287	1074.045776	21835.898438	3401.903564	11.212188
550.727173	1144.586914	21517.324219	3358.668701	10.867866
551.072876	1078.596802	21048.568359	3324.535889	11.246581
551.418640	1144.586914	21046.291016	3363.219727	11.147955
551.764282	1099.076538	20652.626953	3324.535889	11.381357
552.109863	1142.311401	20684.484375	3240.341553	10.735910
552.455505	1121.831787	20916.587891	3335.913574	11.185194
552.801025	1105.903076	20816.464844	3385.974854	11.567766
553.146545	1146.862427	21205.578125	3438.312012	11.423712
553.491943	1169.617676	21451.333984	3476.995850	11.376641
553.837341	1105.903076	21485.466797	3420.107666	11.355515
554.182800	1192.372925	21210.128906	3392.801514	10.992385
554.528015	1108.178589	21025.812500	3440.587402	11.710269
554.873352	1126.382813	20516.095703	3465.618164	12.064311
555.218628	1137.760376	20395.492188	3385.974854	11.674346
555.563721	1117.280762	20147.460938	3319.984863	11.574794
555.908875	1137.760376	19967.695313	3326.811523	11.625379
556.254028	1174.168701	19578.580078	3438.312012	12.302176
556.599121	1071.770264	19239.529297	3351.842041	12.550098
556.944031	1226.505737	19230.425781	3304.056152	11.539433
557.289063	1133.209351	18889.097656	3338.188965	12.418300
557.633972	1135.484863	18900.476563	3279.025391	12.066093
557.978882	1192.372925	18684.300781	3299.505127	12.046312
558.323792	1128.658325	18613.759766	3235.790527	12.051016
558.668518	1089.974487	18247.400391	3274.474365	12.732097
559.013306	1171.893188	18381.656250	3445.138428	13.209044
559.358032	1174.168701	18408.962891	3313.158203	12.410879
559.702637	1135.484863	18286.085938	3333.637939	12.816770
560.047363	1185.546387	18354.351563	3404.179199	12.922465
560.391846	1067.219238	18331.595703	3499.750977	14.089890
560.736450	1103.627563	18085.839844	3467.893799	13.922014
561.080933	1144.586914	18281.533203	3529.332764	13.915816
561.425354	1119.556274	18042.603516	3490.648926	14.011027
561.769775	1155.964600	18431.718750	3556.638916	13.896206
562.114136	1117.280762	18577.351563	3524.781738	13.788610
562.458496	1142.311401	18684.300781	3556.638916	13.763134
562.802673	1174.168701	18695.679688	3604.425049	13.870130
563.146912	1128.658325	18506.810547	3556.638916	13.971454
563.491150	1126.382813	18074.460938	3590.771729	14.540816
563.835266	1089.974487	18276.982422	3604.425049	14.629951
564.179443	1076.321289	18261.054688	3652.210938	14.989407
564.523438	1060.392700	18361.177734	3590.771729	14.625804
564.867493	1064.943726	18324.769531	3681.792725	15.161504
565.211426	1049.015137	18402.136719	3845.630127	16.115919
565.555359	1115.005249	18757.117188	3870.660889	15.619761
565.899231	1133.209351	19014.251953	3822.875000	15.041995
566.243042	1108.178589	19412.468750	4052.702637	16.086523
566.586914	1121.831787	20101.951172	4139.172363	15.897374
566.930603	1151.413574	20329.501953	4196.060547	15.875654
567.274292	1178.719727	20488.789063	4280.254395	16.061747
567.617981	1108.178589	20543.402344	4241.570801	16.122232
567.961609	1112.729614	20354.533203	4330.315918	16.721855
568.305237	1187.821899	19815.234375	4184.682617	16.088444
568.648682	1155.964600	19694.632813	4232.468750	16.595066
568.992188	1092.250000	19665.050781	4330.315918	17.434452
569.335632	1119.556274	19109.824219	4328.040527	17.834557
569.679016	1080.872437	19077.966797	4305.285156	17.916296
570.022461	1064.943726	18861.791016	4271.152344	18.015598
570.365662	1112.729614	19125.751953	4237.019531	17.344620
570.708984	1030.810913	18968.742188	4321.213867	18.343267
571.052185	1089.974487	19105.273438	4369.000000	18.201338
571.395386	1115.005249	19050.660156	4375.826660	18.180666
571.738525	1117.280762	19389.712891	4489.602539	18.455791
572.081604	1180.995239	19935.837891	4733.083496	18.939581
572.424683	1121.831787	20563.880859	4655.715332	18.176498
572.767578	1201.474976	20716.341797	4862.788086	18.761660
573.110596	1176.444214	20566.156250	4821.828613	18.800610
573.453552	1155.964600	20331.779297	4965.186523	19.864721
573.796387	1146.862427	20379.564453	4892.369629	19.474682
574.139282	1192.372925	20088.296875	4885.542969	19.544796
574.481995	1080.872437	20097.400391	4844.583984	19.791792
574.824768	1089.974487	20086.021484	4844.583984	19.765215
575.167480	1112.729614	20004.103516	5088.064453	21.043123
575.510132	1137.760376	19564.927734	4860.512207	20.202518
575.852722	1110.454102	19749.244141	4990.217285	20.815533
576.195251	1167.342163	19558.101563	4771.767090	19.599108
576.537842	1108.178589	19214.498047	4871.890137	20.786728
576.880188	1130.933838	18980.119141	4958.359863	21.443142
577.222717	1183.270874	18534.117188	4796.797852	20.826229
577.565063	1062.668213	18386.208984	4921.951660	22.277683
577.907410	1146.862427	18295.187500	4787.695801	21.231424
578.249756	1144.586914	17689.898438	4774.042480	21.936459
578.591919	1169.617676	17419.111328	4815.001953	22.433832
578.934204	1130.933838	16898.017578	4767.216309	23.062492
579.276306	1089.974487	16588.546875	4564.694824	22.419615
579.618469	1140.035889	16265.422852	4469.123047	22.009932
579.960571	1219.679199	16269.973633	4496.429199	21.771999
580.302551	1215.128052	15685.165039	4532.837402	22.928133
580.644531	1160.515625	15933.196289	4428.163574	22.119534
580.986511	1137.760376	15694.266602	4407.683594	22.463655
581.328369	1096.801025	15407.551758	4491.877930	23.723961
581.670227	1206.026001	15250.540039	4403.132813	22.764099
582.012024	1108.178589	15098.080078	4566.970215	24.723488
582.353821	1126.382813	15077.600586	4464.571777	23.927582
582.695496	1112.729614	14902.385742	4464.571777	24.306931
583.037231	1064.943726	14854.599609	4453.194336	24.570957
583.378845	1080.872437	15027.539063	4391.755371	23.739599
583.720398	1128.658325	14925.140625	4414.510254	23.816593
584.062012	1060.392700	14520.098633	4314.387207	24.175823
584.403442	1044.463989	14622.497070	4457.745117	25.138260
584.744934	1117.280762	14640.701172	4353.071289	23.927309
585.086365	1085.423462	14488.241211	4343.969238	24.312395
585.427734	1135.484863	14845.498047	4323.489746	23.253113
585.768982	1135.484863	14590.639648	4407.683594	24.319296
586.110291	1149.138062	14440.455078	4407.683594	24.516346
586.451599	1167.342163	14160.566406	4530.562012	25.884411
586.792725	1108.178589	14638.425781	4455.469727	24.739319
587.133850	1142.311401	14456.383789	4425.888184	24.662453
587.474915	1105.903076	14392.668945	4378.102051	24.627506
587.815979	1162.791138	14583.812500	4585.174316	25.500170
588.157043	1137.760376	14419.975586	4621.582520	26.229227
588.497925	1124.107300	14558.782227	4503.255859	25.152439
588.838867	1135.484863	14567.883789	4617.031738	25.919025
589.179749	1028.535400	14884.181641	4573.796875	25.587124
589.520569	1174.168701	14668.006836	4678.470703	25.969646
589.861450	1055.841675	15025.263672	4712.603516	26.176901
590.202087	1074.045776	15016.162109	4758.113770	26.424023
590.542847	1110.454102	14879.630859	4712.603516	26.160965
590.883484	1053.566162	15118.560547	4803.624512	26.662354
591.224121	1128.658325	15070.774414	4796.797852	26.309776
591.564636	1140.035889	14982.029297	4698.950684	25.711000
591.905151	1128.658325	14870.528320	4714.878906	26.097034
592.245667	1128.658325	14886.457031	4760.389648	26.397619
592.585999	1142.311401	14731.721680	4687.572754	26.088411
592.926453	1085.423462	14572.435547	4553.316895	25.712839
593.266724	1112.729614	14768.129883	4632.960449	25.779039
593.607056	1135.484863	14495.067383	4605.654297	25.975134
593.947388	1130.933838	14636.149414	4728.532227	26.638584
594.287476	1160.515625	14690.762695	4723.980957	26.337030
594.627686	1142.311401	14820.466797	4824.104004	26.917318
594.967773	1201.474976	15230.060547	4783.144531	25.531221
595.307861	1112.729614	15302.876953	4694.399414	25.240541
595.647888	1128.658325	14977.477539	4837.757324	26.782782
595.987854	1085.423462	15439.408203	4983.390625	27.155994
596.327820	1128.658325	15582.766602	4833.206055	25.629723
596.667725	1101.352051	16076.554688	5035.727539	26.272602
597.007568	1142.311401	16638.607422	5176.810059	26.035244
597.347351	1146.862427	16995.865234	5224.595703	25.728643
597.687073	1069.494751	17357.671875	5413.463867	26.669462
598.026794	1067.219238	17284.855469	5324.718750	26.252281
598.366455	1149.138062	16879.812500	5315.616699	26.486330
598.706116	1121.831787	16597.648438	5242.799805	26.628435
599.045654	1117.280762	16072.003906	5003.870117	25.989044
599.385193	1112.729614	15373.418945	5147.228027	28.291048
599.724731	1137.760376	15220.958984	4819.553223	26.143160
600.064087	1146.862427	14663.456055	4826.379395	27.222221
600.403564	1124.107300	14344.882813	4662.541992	26.764198
600.742920	1126.382813	14297.097656	4623.858398	26.554941
601.082153	1128.658325	13801.033203	4703.501465	28.209734
601.421387	1087.698975	14024.035156	4628.409180	27.370272
601.760620	1151.413574	14096.851563	4430.438965	25.329584
602.099854	1158.240112	14137.810547	4592.000977	26.455118
602.438843	1142.311401	13700.911133	4630.685059	27.776772
602.778015	1115.005249	14008.106445	4589.725586	26.950228
603.117065	1133.209351	14506.445313	4623.858398	26.101751
603.456055	1160.515625	14658.905273	4746.736328	26.567766
603.794983	1055.841675	15182.274414	4835.481934	26.755800
604.133850	1115.005249	15739.777344	4953.808594	26.248636
604.472778	1110.454102	16188.054688	5129.023926	26.652582
604.811584	1105.903076	16713.701172	5165.432129	26.009621
605.150330	1112.729614	17410.009766	5204.116211	25.104721
605.489075	1128.658325	17257.548828	5356.576172	26.213322
605.827698	1128.658325	17321.263672	5265.555176	25.548063
606.166382	1071.770264	17027.722656	5308.790039	26.554476
606.504883	1165.066650	16841.128906	5363.402344	26.781828
606.843445	1135.484863	16194.881836	5204.116211	27.017227
607.181946	1103.627563	15719.297852	5065.309082	27.105713
607.520386	1158.240112	15391.623047	4901.471680	26.298958
607.858826	1108.178589	14891.007813	4771.767090	26.580816
608.197083	1194.648438	14595.190430	4774.042480	26.710815
608.535461	1121.831787	14401.771484	4605.654297	26.233723
608.873718	1074.045776	14174.218750	4621.582520	27.080074
609.211914	1096.801025	14356.260742	4657.991211	26.857731
609.550171	1078.596802	14909.211914	4635.235840	25.715698
609.888245	1119.556274	15207.305664	4824.104004	26.296236
610.226318	1160.515625	15566.837891	4837.757324	25.525194
610.564392	1076.321289	15755.706055	4896.920898	26.026974
610.902344	1051.290649	15500.847656	4855.961426	26.330709
611.240295	1076.321289	15268.744141	4733.083496	25.765594
611.578247	1115.005249	15082.152344	4637.511230	25.219938
611.916138	1069.494751	14825.017578	4587.449707	25.574856
612.253845	1133.209351	14099.126953	4526.010742	26.167074
612.591675	1140.035889	13907.983398	4541.939453	26.644091
612.929382	1067.219238	13787.380859	4444.092285	26.547405
613.267090	1083.147949	13373.235352	4175.580566	25.162006
613.604736	1135.484863	13311.796875	4298.458984	25.976454
613.942261	1099.076538	13307.246094	4134.621094	24.864861
614.279785	1178.719727	13109.275391	4252.948242	25.767689
614.617310	1133.209351	12690.579102	4100.488281	25.674343
614.954712	1149.138062	12440.272461	4032.222900	25.534058
615.292175	1183.270874	12485.782227	3945.753174	24.441315
615.629517	1178.719727	12317.394531	3975.334961	25.107252
615.966797	1124.107300	12260.505859	3927.548828	25.173681
616.304138	1142.311401	12244.577148	3909.344727	24.923140
616.641296	1142.311401	12346.975586	3993.539063	25.446793
616.978516	1171.893188	12112.597656	3788.742188	23.918470
617.315552	1039.912964	12267.333008	3932.099854	25.760033
617.652771	1092.250000	12399.312500	3959.406250	25.357216
617.989685	1080.872437	12340.149414	3902.518066	25.060627
618.326721	1155.964600	12331.046875	3891.140625	24.475668
618.663696	1101.352051	12613.211914	3927.548828	24.550306
619.000549	1128.658325	12415.241211	3822.875000	23.870970
619.337463	1119.556274	12544.946289	3982.161377	25.054770
619.674194	1128.658325	12397.037109	3970.783691	25.222134
620.010986	1121.831787	12101.219727	3818.323975	24.559586
620.347778	1094.525513	11846.361328	3868.385254	25.798941
620.684387	1092.250000	12060.259766	3836.528076	25.020748
621.020996	1199.199463	12071.637695	3884.313965	24.696526
621.357605	1158.240112	11948.759766	3891.140625	25.326866
621.694214	1064.943726	11928.280273	3841.079102	25.555088
622.030579	1144.586914	11896.422852	3809.221924	24.783070
622.367065	1133.209351	11844.085938	3768.262451	24.601658
622.703430	1155.964600	11857.739258	3731.854004	24.069740
623.039795	1110.454102	11646.115234	3649.935303	24.103672
623.376160	1087.698975	11618.809570	3722.751953	25.021606
623.712402	1085.423462	11737.136719	3606.700439	23.670155
624.048645	1121.831787	11664.319336	3756.884766	24.994604
624.384766	1080.872437	11575.574219	3595.322754	23.959234
624.720886	1171.893188	11730.309570	3527.057129	22.306036
625.057007	1117.280762	11432.216797	3618.078125	24.244431
625.392944	1137.760376	11673.421875	3563.465576	23.023758
625.729004	1076.321289	11611.982422	3738.680664	25.269979
626.064941	1101.352051	11980.617188	3686.343750	23.760719
626.400818	1069.494751	12299.189453	3772.813477	24.072950
626.736633	1140.035889	12301.465820	3822.875000	24.036697
627.072449	1128.658325	12635.966797	3827.426025	23.452639
627.408264	1085.423462	12510.813477	3936.650879	24.955189
627.743896	1069.494751	12706.507813	3863.834229	24.012514
628.079590	1083.147949	12642.793945	3797.844238	23.484251
628.415161	1080.872437	12736.089844	3788.742188	23.233110
628.750793	1105.903076	12544.946289	3734.129639	22.975931
629.086365	1115.005249	12246.852539	3836.528076	24.448080
629.421753	1087.698975	12412.965820	3813.772949	24.070726
629.757263	1094.525513	12037.504883	3795.568604	24.682884
630.092651	1101.352051	11951.035156	3672.690674	23.699665
630.427917	1096.801025	11750.789063	3593.047363	23.430159
630.763184	1124.107300	11388.981445	3563.465576	23.764133
631.098511	1215.128052	11350.297852	3527.057129	22.810957
631.433716	1128.658325	11125.021484	3483.822266	23.560209
631.768799	1074.045776	10861.060547	3351.842041	23.273659
632.103943	1117.280762	10904.295898	3426.934326	23.599161
632.438965	1176.444214	10972.561523	3395.077148	22.648083
632.773987	1176.444214	10922.500000	3451.965088	23.348122
633.109070	1206.026001	10735.907227	3367.770752	22.683857
633.443848	1092.250000	10849.683594	3379.148438	23.437500
633.778870	1135.484863	10669.916992	3370.046387	23.436756
634.113708	1149.138062	10619.855469	3279.025391	22.489185
634.448425	1167.342163	10599.375977	3422.383301	23.908321
634.783264	1128.658325	10908.846680	3276.750000	21.963705
635.117859	1146.862427	10724.529297	3256.270264	22.024233
635.452576	1108.178589	10904.295898	3388.250488	23.275261
635.787170	1083.147949	10902.020508	3317.709229	22.757818
636.121704	1069.494751	10405.957031	3199.382324	22.812578
636.456177	1135.484863	10299.006836	3117.463379	21.629005
636.790588	1140.035889	10005.464844	3274.474365	24.075975
637.125122	1089.974487	10314.935547	3183.453613	22.693636
637.459412	1169.617676	10089.659180	3149.320801	22.193880
637.793762	1140.035889	9893.964844	3099.259277	22.381075
638.128052	1089.974487	9818.872070	3147.045166	23.566216
638.462280	1133.209351	9843.903320	3008.238525	21.525600
638.796509	1149.138062	9727.851563	3017.340576	21.777187
639.130615	1112.729614	9554.912109	3094.708252	23.477087
639.464722	1130.933838	9573.116211	2933.146240	21.347708
639.798767	1124.107300	9550.360352	3083.330566	23.251417
640.132751	1174.168701	9322.808594	3085.606201	23.457136
640.466736	1110.454102	9381.972656	3051.473389	23.466299
640.800598	1124.107300	9554.912109	2992.309814	22.159243
641.134521	1176.444214	9115.736328	2889.911377	21.582115
641.468262	1085.423462	9193.104492	3083.330566	24.642153
641.802063	1074.045776	9081.603516	2928.595215	23.159988
642.135803	1149.138062	8908.664063	2958.177002	23.313782
642.469421	1112.729614	9115.736328	3049.197754	24.196756
642.803101	1155.964600	9017.888672	2807.992676	21.013025
643.136658	1162.791138	8863.153320	2780.686523	21.010639
643.470215	1140.035889	8920.041992	2792.063965	21.234278
643.803711	1128.658325	8872.255859	2871.707275	22.509550
644.137085	1128.658325	8958.725586	2839.849854	21.854111
644.470581	1140.035889	8635.601563	2817.094727	22.374014
644.803833	1135.484863	8706.142578	2805.717041	22.061916
645.137207	1121.831787	8915.490234	2869.431641	22.423357
645.470459	1151.413574	8612.846680	2696.492188	20.707531
645.803589	1169.617676	8667.458984	2871.707275	22.701061
646.136780	1174.168701	8731.172852	2828.472412	21.891001
646.469849	1151.413574	8831.295898	2771.584229	21.096294
646.802979	1126.382813	8712.968750	2814.819336	22.255550
647.135986	1126.382813	8619.672852	2757.931152	21.773458
647.468994	1155.964600	8940.521484	2757.931152	20.578777
647.801941	1126.382813	8858.602539	2819.370361	21.895233
648.134766	1108.178589	8967.827148	2696.492188	20.208456
648.467651	1158.240112	8817.643555	2707.869873	20.231730
648.800354	1153.689087	8947.347656	2757.931152	20.583941
649.133179	1180.995239	8778.958984	2751.104736	20.664871
649.465881	1128.658325	8813.091797	2712.420898	20.610010
649.798462	1089.974487	8920.041992	2705.594238	20.633535
650.131104	1119.556274	8833.571289	2755.655762	21.209440
650.463623	1103.627563	8765.305664	2694.216553	20.760321
650.796143	1133.209351	8833.571289	2782.961914	21.424351
651.128662	1089.974487	8765.305664	2616.848877	19.893270
651.461060	1108.178589	8738.000000	2691.941162	20.757532
651.793396	1112.729614	8904.113281	2764.757813	21.203270
652.125732	1105.903076	8744.826172	2701.043213	20.881742
652.458008	1085.423462	8788.061523	2694.216553	20.886261
652.790222	1201.474976	8983.755859	2792.063965	20.438597
653.122437	1119.556274	8633.326172	2785.237549	22.168383
653.454529	1117.280762	8608.294922	2828.472412	22.843258
653.786621	1103.627563	8562.785156	2710.145264	21.537521
654.118713	1117.280762	8626.499023	2596.369141	19.696968
654.450623	1144.586914	8512.723633	2587.267090	19.579987
654.782654	1146.862427	8437.630859	2580.440674	19.662924
655.114502	1115.005249	8508.171875	2644.155273	20.683289
655.446350	1146.862427	8410.325195	2619.124512	20.269424
655.778198	1112.729614	8526.375977	2580.440674	19.797424
656.109863	1130.933838	8285.170898	2732.900391	22.391857
656.441650	1060.392700	8405.773438	2591.818115	20.848822
656.773254	1124.107300	8155.466797	2578.165039	20.679611
657.104919	1133.209351	8212.354492	2571.338623	20.315014
657.436462	1105.903076	8144.088867	2569.062988	20.788879
657.767944	1078.596802	8487.692383	2584.991699	20.331697
658.099548	1078.596802	8626.499023	2625.950928	20.500452
658.430908	1135.484863	8428.529297	2689.665527	21.310452
658.762268	1064.943726	8740.275391	2653.257324	20.693747
659.093628	1137.760376	8701.591797	2646.430664	19.945847
659.424927	1096.801025	9143.042969	2828.472412	21.521492
659.756226	1126.382813	9682.340820	2778.410889	19.308512
660.087341	1112.729614	9721.024414	2842.125488	20.089878
660.418518	1176.444214	9889.413086	2917.217773	19.979109
660.749573	1105.903076	9791.566406	2817.094727	19.701336
661.080627	1165.066650	9641.381836	2873.982666	20.161072
661.411621	1060.392700	9509.401367	2937.697266	22.219229
661.742554	1051.290649	9529.880859	2773.859863	20.316694
662.073547	1160.515625	9179.451172	2803.441650	20.488081
662.404297	1101.352051	9006.511719	2687.390137	20.063328
662.735229	1142.311401	8728.897461	2575.889648	18.896223
663.065979	1067.219238	8612.846680	2723.798340	21.954159
663.396667	1160.515625	8505.896484	2562.236328	19.083023
663.727417	1128.658325	8346.610352	2676.012451	21.437578
664.057922	1151.413574	8134.986816	2434.807373	18.377323
664.388611	1155.964600	8107.680664	2566.787354	20.294598
664.719116	1183.270874	7941.567383	2441.633789	18.619528
665.049622	1146.862427	7805.036133	2421.154053	19.138756
665.380005	1094.525513	7734.495117	2496.246338	21.110350
665.710388	1133.209351	7741.321777	2507.624023	20.798901
666.040771	1153.689087	7780.005859	2389.296875	18.646976
666.371033	1119.556274	7836.893555	2418.878662	19.342819
666.701294	1140.035889	7663.954102	2343.786377	18.451344
667.031555	1115.005249	7707.188965	2500.797363	21.021746
667.361633	1180.995239	7695.811523	2455.286865	19.559900
667.691772	1101.352051	7613.892578	2327.857666	18.832983
668.021790	1160.515625	7704.913574	2434.807373	19.471489
668.351807	1108.178589	7627.545898	2396.123291	19.755671
668.681763	1105.903076	7577.484375	2498.521729	21.518986
669.011719	1083.147949	7725.393066	2325.582275	18.705036
669.341614	1089.974487	7629.821289	2366.541748	19.519835
669.671387	1142.311401	7622.994629	2359.715088	18.785114
670.001221	1060.392700	7766.352539	2425.705078	20.359686
670.330933	1133.209351	7780.005859	2361.990479	18.486818
670.660583	1055.841675	7907.434570	2377.919189	19.295916
670.990173	1119.556274	7711.740234	2387.021240	19.226784
671.319763	1105.903076	7588.861816	2505.348389	21.586521
671.649292	1162.791138	7597.963867	2498.521729	20.756716
671.978821	1146.862427	7295.319824	2371.092773	19.911179
672.308289	1124.107300	7415.922363	2377.919189	19.927666
672.637695	1149.138062	7370.412109	2382.470215	19.824430
672.966980	1185.546387	7261.187012	2366.541748	19.438204
673.296326	1206.026001	7224.778320	2309.653564	18.336483
673.625610	1140.035889	7329.452637	2341.510986	19.411766
673.954773	1155.964600	7347.656738	2261.867676	17.861078
674.283936	1115.005249	7106.451660	2280.071777	19.445498
674.613037	1069.494751	7286.217773	2318.755615	20.095167
674.942078	1162.791138	7186.094727	2286.898438	18.662638
675.271118	1158.240112	7154.237305	2255.041016	18.292219
675.600098	1130.933838	7085.971680	2227.734863	18.418036
675.928955	1096.801025	7161.063965	2305.102539	19.924953
676.257813	1108.178589	6963.093750	2175.397949	18.227751
676.586670	1049.015137	6974.471191	2343.786377	21.850998
676.915466	1126.382813	6965.369141	2236.836914	19.017925
677.244141	1126.382813	6985.848633	2296.000488	19.961166
677.572876	1151.413574	6833.389160	2264.143311	19.583500
677.901489	1121.831787	6676.377930	2250.489990	20.319540
678.230042	1051.290649	6988.124512	2266.418701	20.467611
678.558594	1140.035889	7017.706055	2239.112549	18.699190
678.887085	1210.577026	6967.644531	2250.489990	18.063242
679.215515	1092.250000	6953.991699	2384.745850	22.049690
679.543945	1155.964600	7076.869629	2305.102539	19.408146
679.872253	1142.311401	7288.493164	2216.357178	17.475008
680.200562	1112.729614	7347.656738	2298.276123	19.014601
680.528809	1128.658325	7538.800293	2325.582275	18.672346
680.856995	1137.760376	7511.494141	2305.102539	18.314888
681.185120	1092.250000	7597.963867	2450.735840	20.881426
681.513306	1115.005249	7657.127441	2432.531738	20.139130
681.841309	1069.494751	7757.250488	2336.959961	18.952026
682.169373	1085.423462	7845.995605	2373.368164	19.050823
682.497314	1112.729614	7725.393066	2389.296875	19.304888
682.825134	1124.107300	7434.126465	2330.133301	19.112875
683.153076	1126.382813	7620.719238	2250.489990	17.309038
683.480896	1099.076538	7406.820313	2409.776611	20.779222
683.808655	1051.290649	7409.095703	2245.938965	18.790262
684.136414	1140.035889	7306.697266	2318.755615	19.114391
684.464050	1046.739624	7254.360352	2296.000488	20.124634
684.791626	1112.729614	7097.349609	2268.694336	19.315590
685.119263	1105.903076	6837.939941	2252.765625	20.007940
685.446838	1121.831787	6853.868652	2255.041016	19.769747
685.774292	1196.923950	6553.500000	2241.387939	19.498724
686.101685	1124.107300	6599.010254	2177.673340	19.243557
686.429077	1155.964600	6614.938965	2157.193604	18.340973
686.756348	1124.107300	6539.846680	2168.571289	19.285713
687.083679	1094.525513	6492.061035	2116.234375	18.929173
687.410950	1078.596802	6635.418457	2132.163086	18.959871
687.738159	1190.097412	6655.898438	2127.612061	17.152374
688.065308	1085.423462	6589.908203	2091.203613	18.272013
688.392395	1044.463989	6783.327637	2154.918213	19.349722
688.719421	1042.188477	6676.377930	2189.051025	20.355413
689.046448	1190.097412	6837.939941	2227.734863	18.372280
689.373413	1133.209351	6767.398926	2239.112549	19.628435
689.700317	1149.138062	6639.969727	2195.877686	19.063408
690.027100	1137.760376	6662.725098	2250.489990	20.140030
690.353943	1133.209351	6626.316406	2118.509766	17.937033
690.680725	1183.270874	6403.315430	2255.041016	20.531820
691.007446	1055.841675	6378.284668	2223.183838	21.932451
691.334106	1096.801025	6353.253906	2164.020264	20.303030
691.660645	1162.791138	6146.181641	2091.203613	18.630136
691.987244	1117.280762	6077.916016	2129.887451	20.412844
692.313721	1124.107300	5984.619629	2143.540527	20.973782
692.640259	1144.586914	6109.773438	2038.866699	18.011002
692.966675	1103.627563	6023.303711	2047.968750	19.195190
693.293030	1092.250000	5838.986328	2127.612061	21.812082
693.619324	1130.933838	5989.170898	2036.591064	18.641684
693.945618	1103.627563	5829.884277	2022.937988	19.451132
694.271851	1101.352051	5709.281738	2036.591064	20.296295
694.598083	1171.893188	5757.067871	2032.040039	18.759304
694.924194	1115.005249	5920.905273	2018.386963	18.797348
695.250244	1115.005249	5679.699707	2036.591064	20.189430
695.576294	1121.831787	5752.516602	2066.172852	20.393120
695.902283	1174.168701	5713.832520	1893.233276	15.839599
696.228210	1049.015137	5864.017090	1975.152100	19.234406
696.554138	1144.586914	5784.374023	2043.417725	19.372242
696.879944	1130.933838	5727.485840	1918.264038	17.128714
697.205750	1169.617676	5707.006348	2079.825928	20.060179
697.531433	1183.270874	5889.047852	2072.999512	18.907158
697.857178	1126.382813	5882.221191	2072.999512	19.904308
698.182739	1137.760376	6068.813965	2070.723877	18.920164
698.508423	1126.382813	6360.080566	2134.438477	19.260868
698.833984	1171.893188	6328.223145	2202.704102	19.991175
699.159485	1115.005249	6726.439453	2184.500000	19.059206
699.484924	1149.138062	7045.012207	2334.684326	20.108067
699.810303	1158.240112	7060.940918	2316.480225	19.622206
700.135681	1174.168701	7302.146484	2220.908203	17.081322
700.460999	1135.484863	7447.779785	2300.551514	18.457102
700.786255	1151.413574	7065.492188	2243.663574	18.468641
701.111450	1137.760376	6869.797363	2232.285889	19.094879
701.436646	1101.352051	6735.541504	2218.632813	19.830372
701.761719	1108.178589	6539.846680	2157.193604	19.312944
702.086792	1121.831787	6385.111328	2161.744873	19.757893
702.411865	1094.525513	6084.742676	2127.612061	20.702236
702.736816	1085.423462	5848.088379	2054.795166	20.353556
703.061646	1083.147949	5788.924805	2043.417725	20.406191
703.386536	1112.729614	5743.414551	1968.325439	18.476658
703.711365	1099.076538	5458.974609	1956.947876	19.676409
704.036194	1133.209351	5420.290527	1947.845825	19.002125
704.360901	1094.525513	5324.718750	1849.998413	17.859062
704.685547	1044.463989	5377.055664	2057.070801	23.371849
705.010132	1167.342163	5235.973145	1843.171875	16.610741
705.334717	1119.556274	5179.085449	1959.223389	20.683853
705.659302	1103.627563	5135.850586	1815.865601	17.663656
705.983765	1078.596802	5110.819824	1829.518677	18.623024
706.308228	1171.893188	5076.687012	1920.539551	19.172493
706.632568	1076.321289	5110.819824	1909.161987	20.642979
706.956909	1201.474976	4906.022949	2052.519775	22.972973
707.281189	1119.556274	4946.982422	1954.672363	21.819260
707.605408	1144.586914	5222.320313	1831.794189	16.852678
707.929626	1140.035889	5049.380859	1854.549438	18.277065
708.253784	1140.035889	5038.002930	2002.458252	22.124928
708.577820	1192.372925	5028.900879	1845.447388	17.022539
708.901855	1080.872437	4987.941406	1927.366089	21.665695
709.225830	1162.791138	5035.727539	1902.335449	19.095182
709.549805	1124.107300	5142.677246	1931.917114	20.101923
709.873718	1128.658325	4967.461914	1929.641602	20.865440
710.197510	1128.658325	5090.339844	1931.917114	20.275703
710.521362	1171.893188	5181.360840	1863.651489	17.253120
710.845093	1062.668213	5229.146973	1959.223389	21.518295
711.168701	1142.311401	5217.769043	1906.886475	18.760471
711.492432	1212.852539	5254.177734	2007.009399	19.650902
711.816040	1126.382813	5468.076660	1979.703125	19.654087
712.139587	1105.903076	5468.076660	1888.682251	17.944704
712.463074	1117.280762	5452.147949	1947.845825	19.160105
712.786499	1137.760376	5454.423340	1888.682251	17.395887
713.109924	1137.760376	5311.065430	1988.805176	20.392586
713.433350	1158.240112	5367.953613	1943.294800	18.648649
713.756592	1087.698975	5388.433105	1925.090576	19.470898
714.079834	1062.668213	5290.585938	1929.641602	20.505919
714.403015	1055.841675	5249.626465	1954.672363	21.432447
714.726196	1094.525513	5292.861328	1863.651489	18.319782
715.049255	1083.147949	5190.462891	1950.121338	21.108032
715.372375	1105.903076	5081.237793	1886.406738	19.633659
715.695435	1133.209351	5108.544434	1927.366089	19.977102
716.018311	1092.250000	5076.687012	1938.743774	21.245003
716.341248	1099.076538	5022.074219	1870.478149	19.663576
716.664063	1119.556274	5092.615723	1881.855713	19.186710
716.987000	1146.862427	5158.605469	1906.886475	18.944983
717.309692	1149.138062	5060.758301	1884.131226	18.789993
717.632385	1117.280762	4915.125000	1909.161987	20.850809
717.955078	1108.178589	4944.706543	1893.233276	20.462635
718.277649	1174.168701	4926.502441	1890.957764	19.102488
718.600220	1049.015137	4855.961426	1863.651489	21.398682
718.922791	1115.005249	4787.695801	1895.508789	21.251547
719.245300	1165.066650	4767.216309	1806.763550	17.814276
719.567688	1092.250000	4576.072266	1843.171875	21.554541
719.890015	1087.698975	4630.685059	1881.855713	22.414898
720.212341	1140.035889	4569.245605	1827.243164	20.039814
720.534607	1178.719727	4487.327148	1804.488037	18.913343
720.856873	1117.280762	4439.541016	1795.385864	20.410957
721.179016	1167.342163	4421.336914	1781.732788	18.881121
721.501160	1076.321289	4318.938477	1802.212524	22.385967
721.823242	1135.484863	4273.428223	1738.497925	19.216824
722.145264	1146.862427	4246.121582	1708.916138	18.135098
722.467224	1162.791138	4205.162598	1822.692139	21.690348
722.789185	1149.138062	4241.570801	1692.987427	17.586458
723.111023	1140.035889	4186.958496	1645.201538	16.579536
723.432861	1137.760376	4134.621094	1749.875488	20.425209
723.754578	1151.413574	4243.846191	1736.222412	18.910965
724.076294	1119.556274	4280.254395	1654.303589	16.918646
724.397949	1078.596802	4241.570801	1629.272949	17.410074
724.719666	1174.168701	4095.937500	1672.507813	17.056076
725.041260	1119.556274	4120.968262	1708.916138	19.636086
725.362732	1055.841675	4086.835449	1740.773438	22.597597
725.684265	1130.933838	4227.917480	1727.120239	19.250551
726.005676	1149.138062	4091.386475	1695.262939	18.561480
726.327087	1092.250000	4089.110840	1699.814087	20.273350
726.648438	1069.494751	4102.764160	1715.742676	21.305325
726.969666	1117.280762	4091.386475	1756.702026	21.499615
727.290894	1119.556274	4091.386475	1729.395752	20.520672
727.612061	1194.648438	4111.866211	1718.018188	17.940716
727.933228	1137.760376	4145.999023	1749.875488	20.347956
728.254395	1119.556274	4287.081055	1779.457275	20.833332
728.575378	1124.107300	4280.254395	1824.967651	22.206202
728.896301	1192.372925	4380.377441	1779.457275	18.415419
729.217285	1180.995239	4391.755371	1809.039063	19.560595
729.538147	1146.862427	4355.346680	1804.488037	20.496456
729.858948	1155.964600	4430.438965	1890.957764	22.446142
730.179810	1151.413574	4407.683594	1784.008301	19.426973
730.500549	1153.689087	4225.642090	1809.039063	21.333332
730.821228	1117.280762	4305.285156	1718.018188	18.843683
731.141846	1176.444214	4371.275391	1847.722900	21.011398
731.462402	1137.760376	4425.888184	1806.763550	20.346020
731.782898	1096.801025	4532.837402	1868.202637	22.450333
732.103455	1158.240112	4430.438965	1831.794189	20.584143
732.423889	1105.903076	4412.234863	1838.620850	22.161049
732.744263	1096.801025	4473.673828	1822.692139	21.495956
733.064636	1140.035889	4334.867188	1824.967651	21.438745
733.384888	1128.658325	4403.132813	1752.151001	19.040998
733.705200	1117.280762	4337.142578	1843.171875	22.544170
734.025330	1096.801025	4478.225098	1804.488037	20.928667
734.345520	1167.342163	4396.306152	1815.865601	20.084568
734.665527	1089.974487	4428.163574	1820.416626	21.881390
734.985596	1085.423462	4296.183105	1818.141113	22.820694
735.305542	1133.209351	4205.162598	1831.794189	22.740740
735.625549	1103.627563	4271.152344	1743.048950	20.186783
735.945435	1105.903076	4293.907715	1790.834839	21.484653
736.265259	1190.097412	4123.243652	1815.865601	21.334368
736.585083	1135.484863	4066.355713	1818.141113	23.291925
736.904785	1112.729614	3982.161377	1820.416626	24.662968
737.224426	1112.729614	4061.804688	1777.181763	22.530865
737.544128	1135.484863	4025.396240	1733.946899	20.708664
737.863708	1153.689087	3907.069336	1690.711914	19.504128
738.183289	1121.831787	4023.120850	1768.079712	22.274509
738.502808	1094.525513	4016.294189	1704.365112	20.872276
738.822205	1074.045776	3959.406250	1670.232300	20.662464
739.141541	1142.311401	4029.947266	1765.804199	21.591808
739.460938	1112.729614	4027.671875	1708.916138	20.452772
739.780212	1142.311401	4066.355713	1799.937012	22.490274
740.099426	1128.658325	4277.979004	1813.590088	21.748554
740.418640	1026.259888	4020.845215	1758.977539	24.468082
740.737793	1078.596802	4086.835449	1727.120239	21.558243
741.056885	1130.933838	4123.243652	1708.916138	19.315590
741.375977	1105.903076	4100.488281	1761.253052	21.884499
741.694946	1060.392700	4039.049316	1770.355225	23.834990
742.013855	1140.035889	4080.008789	1672.507813	18.111456
742.332703	1146.862427	3922.997803	1770.355225	22.459021
742.651550	1119.556274	3909.344727	1786.283813	23.898855
742.970398	1162.791138	3913.895752	1667.956787	18.362286
743.289124	1117.280762	3831.977051	1784.008301	24.559931
743.607788	1108.178589	3825.150391	1731.671387	22.948078
743.926453	1119.556274	3802.395264	1740.773438	23.155216
744.245056	1128.658325	3777.364502	1745.324463	23.281788
744.563599	1144.586914	3884.313965	1815.865601	24.501663
744.882141	1108.178589	3715.925537	1758.977539	24.956367
745.200500	1108.178589	3820.599365	1729.395752	22.902683
745.518860	1137.760376	3690.894775	1686.160889	21.479502
745.837219	1110.454102	3747.782715	1702.089600	22.433136
746.155518	1094.525513	3608.976074	1645.201538	21.900450
746.473755	1137.760376	3483.822266	1670.232300	22.696413
746.791992	1110.454102	3643.108887	1658.854614	21.653189
747.110107	1076.321289	3645.384277	1608.793213	20.726309
747.428162	1069.494751	3570.292236	1733.946899	26.569613
747.746216	1183.270874	3517.955078	1738.497925	23.781677
748.064148	1183.270874	3520.230713	1663.405762	20.545277
748.382080	1142.311401	3606.700439	1670.232300	21.421978
748.700073	1178.719727	3581.669678	1686.160889	21.117426
749.017822	1110.454102	3442.863037	1722.569214	26.243902
749.335632	1174.168701	3581.669678	1699.814087	21.833652
749.653320	1137.760376	3595.322754	1656.579102	21.111111
749.971008	1112.729614	3549.812500	1665.681274	22.689077
750.288696	1080.872437	3718.200928	1733.946899	24.762726
750.606262	1042.188477	3620.353516	1727.120239	26.566637
750.923828	1101.352051	3643.108887	1770.355225	26.320503
751.241272	1119.556274	3636.282227	1711.191650	23.508135
751.558716	1094.525513	3529.332764	1772.630737	27.850470
751.876038	1028.535400	3636.282227	1761.253052	28.097729
752.193481	1089.974487	3561.189941	1665.681274	23.296505
752.510681	1108.178589	3399.628174	1688.436401	25.322739
752.827942	1064.943726	3442.863037	1781.732788	30.143539
753.145081	1108.178589	3527.057129	1747.599976	26.434624
753.462219	1074.045776	3497.475586	1713.467163	26.384977
753.779297	1146.862427	3513.404053	1633.823975	20.576929
754.096375	1185.546387	3504.302002	1713.467163	22.767418
754.413330	1158.240112	3542.985840	1708.916138	23.091604
754.730286	1144.586914	3568.016602	1861.375977	29.577465
755.047119	1108.178589	3490.648926	1658.854614	23.113659
755.363892	1165.066650	3508.853027	1690.711914	22.427183
755.680725	1105.903076	3524.781738	1688.436401	24.082785
755.997498	1160.515625	3433.760986	1690.711914	23.323320
756.314148	1167.342163	3479.271240	1688.436401	22.539368
756.630737	1140.035889	3490.648926	1758.977539	26.331074
756.947327	1119.556274	3395.077148	1697.538574	25.399998
757.263855	1117.280762	3385.974854	1706.640625	25.977934
757.580261	1119.556274	3422.383301	1761.253052	27.865608
757.896729	1089.974487	3370.046387	1677.058838	25.748503
758.213074	1133.209351	3515.679688	1704.365112	23.973259
758.529419	1105.903076	3467.893799	1690.711914	24.759150
758.845642	1092.250000	3431.485352	1692.987427	25.680931
759.161865	1108.178589	3481.546875	1677.058838	23.969322
759.478149	1153.689087	3447.414063	1720.293701	24.702377
759.794189	1149.138062	3504.302002	1786.283813	27.053137
760.110229	1142.311401	3488.373291	1708.916138	24.151312
760.426270	1074.045776	3508.853027	1740.773438	27.383183
760.742249	1117.280762	3520.230713	1736.222412	25.757576
761.058105	1108.178589	3554.363525	1677.058838	23.255814
761.374023	1171.893188	3624.904541	1793.110352	25.324677
761.689819	1058.117188	3668.139648	1752.151001	26.591105
762.005554	1165.066650	3565.741211	1790.834839	26.066349
762.321289	1135.484863	3595.322754	1763.528564	25.531914
762.636902	1142.311401	3661.312988	1790.834839	25.745258
762.952515	1117.280762	3472.444824	1822.692139	29.951687
763.268127	1165.066650	3718.200928	1893.233276	28.520498
763.583618	1080.872437	3645.384277	1784.008301	27.417923
763.899048	1124.107300	3941.202148	1909.161987	27.867529
764.214478	1155.964600	4280.254395	2041.142212	28.332123
764.529785	1112.729614	4585.174316	2100.305664	28.440367
764.845093	1108.178589	4869.614746	2220.908203	29.582575
765.160400	1135.484863	4997.043457	2245.938965	28.756630
765.475586	1037.637451	4935.604492	2243.663574	30.939875
765.790771	1094.525513	4794.522461	2125.336426	27.859776
766.105835	1103.627563	4673.919922	2125.336426	28.616951
766.420837	1105.903076	4457.745117	2011.560425	27.019691
766.735840	1160.515625	4259.774902	1968.325439	26.064610
767.050842	1115.005249	4036.773926	1984.254150	29.750778
767.365662	1087.698975	3836.528076	1875.029175	28.642384
767.680542	1112.729614	3911.620361	1870.478149	27.073174
767.995300	1087.698975	3870.660889	1809.039063	25.919868
768.309998	1124.107300	3768.262451	1922.815063	30.206537
768.624817	1137.760376	3656.761963	1909.161987	30.623310
768.939392	1058.117188	3627.180176	1820.416626	29.672276
769.254028	1110.454102	3674.966064	1854.549438	29.015085
769.568481	1130.933838	3465.618164	1902.335449	33.040939
769.882935	1076.321289	3488.373291	1786.283813	29.433964
770.197388	1176.444214	3385.974854	1843.171875	30.175079
770.511841	1176.444214	3417.832275	1811.314575	28.324873
770.826172	1165.066650	3294.954102	1774.906250	28.632481
771.140442	1087.698975	3276.750000	1818.141113	33.367981
771.454651	1117.280762	3372.321777	1813.590088	30.877901
771.768860	1115.005249	3244.892578	1856.824951	34.829060
772.082886	1130.933838	3247.168213	1840.896362	33.548389
772.397034	1115.005249	3192.555664	1711.191650	28.696606
772.711060	1151.413574	3128.841064	1747.599976	30.149595
773.025024	1160.515625	3183.453613	1777.181763	30.483690
773.338928	1151.413574	3192.555664	1815.865601	32.552952
773.652771	1178.719727	3167.524902	1752.151001	28.832954
773.966614	1137.760376	3094.708252	1724.844727	30.000000
774.280457	1117.280762	3137.943115	1729.395752	30.292789
774.594116	1128.658325	3078.779541	1770.355225	32.905487
774.907776	1087.698975	3019.616211	1708.916138	32.155476
775.221375	1074.045776	3094.708252	1733.946899	32.657661
775.534912	1149.138062	2999.136475	1795.385864	34.932343
775.848450	1074.045776	3090.157227	1781.732788	35.101582
776.161926	1119.556274	3067.402100	1724.844727	31.074762
776.475342	1146.862427	2971.830078	1724.844727	31.670824
776.788696	1135.484863	3126.565674	1629.272949	24.800003
777.101990	1169.617676	2930.870850	1738.497925	32.299744
777.415283	1105.903076	2924.044189	1692.987427	32.290363
777.728516	1144.586914	2899.013428	1683.885376	30.739302
778.041626	1151.413574	2937.697266	1770.355225	34.649685
778.354736	1133.209351	2935.421875	1772.630737	35.479801
778.667725	1151.413574	3005.962891	1761.253052	32.883434
778.980774	1155.964600	2935.421875	1711.191650	31.202045
779.293640	1126.382813	2880.809326	1840.896362	40.726330
779.606567	1069.494751	2755.655762	1756.702026	40.755733
779.919434	1160.515625	2844.401123	1749.875488	34.999996
780.232239	1171.893188	2878.533936	1679.334351	29.733332
780.544983	1162.791138	2921.768799	1636.099487	26.908150
780.857666	1201.474976	3008.238525	1752.151001	30.478588
781.170227	1169.617676	2792.063965	1736.222412	34.922867
781.482849	1140.035889	2855.778564	1768.079712	36.604778
781.795410	1117.280762	2819.370361	1781.732788	39.037430
782.107910	1126.382813	2889.911377	1754.426514	35.612904
782.420288	1135.484863	2805.717041	1690.711914	33.242508
782.732666	1108.178589	2776.135498	1818.141113	42.564800
783.044983	1196.923950	2712.420898	1702.089600	33.333332
783.357300	1153.689087	2716.971924	1683.885376	33.915569
783.669495	1144.586914	2767.033203	1727.120239	35.904629
783.981689	1160.515625	2785.237549	1656.579102	30.532207
784.293762	1140.035889	2735.176025	1649.752563	31.954351
784.605835	1126.382813	2732.900391	1674.783325	34.135979
784.917908	1121.831787	2632.777588	1706.640625	38.704819
785.229858	1151.413574	2671.461426	1774.906250	41.017963
785.541748	1092.250000	2696.492188	1718.018188	39.007092
785.853577	1242.434326	2591.818115	1670.232300	31.703209
786.165405	1105.903076	2628.226563	1631.548462	34.529152
786.477173	1137.760376	2707.869873	1677.058838	34.347824
786.788879	1049.015137	2641.879639	1704.365112	41.142857
787.100525	1103.627563	2630.501953	1763.528564	43.219074
787.412109	1035.361938	2621.399902	1617.895264	36.728840
787.723694	1064.943726	2600.920166	1681.609863	40.148151
788.035156	998.953613	2605.471436	1697.538574	43.484421
788.346558	1023.984375	2610.022461	1679.334351	41.319939
788.658081	1092.250000	2632.777588	1690.711914	38.847855
788.969360	1099.076538	2653.257324	1715.742676	39.677891
789.280640	1119.556274	2773.859863	1781.732788	40.027508
789.591919	1176.444214	2769.308838	1804.488037	39.428574
789.903076	1158.240112	2848.952148	1824.967651	39.434719
790.214172	1121.831787	2924.044189	1813.590088	38.383839
790.525269	1117.280762	2798.890625	1758.977539	38.159672
790.836365	1124.107300	2744.278076	1818.141113	42.837078
791.147339	1126.382813	2728.349365	1784.008301	41.051136
791.458191	1112.729614	2737.451416	1863.651489	46.218491
791.769104	1103.627563	2657.808350	1815.865601	45.827232
792.079895	1149.138062	2703.318604	1699.814087	35.431923
792.390686	1124.107300	2569.062988	1681.609863	38.582676
792.701416	1169.617676	2541.756836	1702.089600	38.805969
793.012085	1151.413574	2487.144287	1736.222412	43.781940
793.322693	1099.076538	2591.818115	1754.426514	43.902439
793.633240	1185.546387	2544.032227	1686.160889	36.850918
793.943787	1094.525513	2448.460449	1718.018188	46.050415
794.254272	1101.352051	2607.746826	1763.528564	43.957703
794.564636	1094.525513	2471.215576	1677.058838	42.314049
794.875000	1183.270874	2462.113525	1811.314575	49.110317
795.185303	1080.872437	2484.868652	1663.405762	41.491089
795.495544	1021.708862	2496.246338	1724.844727	47.685181
795.805786	1149.138062	2430.256104	1747.599976	46.714035
796.115906	1165.066650	2475.766602	1758.977539	45.312496
796.426025	1108.178589	2491.695313	1740.773438	45.723686
796.736023	1140.035889	2525.828125	1733.946899	42.857147
797.045959	1110.454102	2562.236328	1763.528564	44.984325
797.355896	1142.311401	2598.644775	1847.722900	48.437500
797.665833	1103.627563	2660.083740	1865.927002	48.976608
797.975708	1183.270874	2562.236328	1822.692139	46.369637
798.285461	1083.147949	2641.879639	1786.283813	45.109486
798.595154	1117.280762	2610.022461	1772.630737	43.902435
798.904846	1128.658325	2423.429688	1752.151001	48.154655
799.214478	1096.801025	2473.491211	1831.794189	53.388420
799.524109	1071.770264	2571.338623	1784.008301	47.496204
799.833557	1121.831787	2587.267090	1736.222412	41.925468
800.143005	1089.974487	2462.113525	1749.875488	48.092865
800.452393	1069.494751	2412.052002	1729.395752	49.152542
800.761780	1162.791138	2384.745850	1824.967651	54.189938
801.071106	1058.117188	2405.225586	1754.426514	51.689182
801.380371	1183.270874	2346.062012	1713.467163	45.596863
801.689575	1078.596802	2368.817139	1770.355225	53.615528
801.998718	1196.923950	2414.327637	1745.324463	45.046726
802.307800	1117.280762	2407.500977	1740.773438	48.324516
802.616882	1087.698975	2437.082764	1724.844727	47.217533
802.925903	1108.178589	2405.225586	1729.395752	47.894730
803.234863	1023.984375	2409.776611	1706.640625	49.261082
803.543701	1112.729614	2336.959961	1763.528564	53.159843
803.852539	1069.494751	2425.705078	1740.773438	49.496651
804.161316	1124.107300	2359.715088	1636.099487	41.436466
804.470032	1089.974487	2380.194824	1702.089600	47.442680
804.778809	1115.005249	2280.071777	1608.793213	42.382813
805.087341	1187.821899	2289.173828	1674.783325	44.214878
805.395935	1096.801025	2257.316650	1674.783325	49.803921
805.704468	1110.454102	2311.929199	1702.089600	49.242428
806.012939	1092.250000	2348.337402	1763.528564	53.442028
806.321350	1105.903076	2311.929199	1745.324463	53.018867
806.629761	1185.546387	2418.878662	1754.426514	46.125454
806.938049	1089.974487	2325.582275	1856.824951	62.062611
807.246277	1160.515625	2368.817139	1770.355225	50.470814
807.554504	1039.912964	2302.827148	1802.212524	60.360359
807.862671	1171.893188	2296.000488	1838.620850	59.311745
808.170715	1194.648438	2357.439453	1772.630737	49.706463
808.478821	1176.444214	2418.878662	1802.212524	50.366302
808.786804	1210.577026	2236.836914	1722.569214	49.889137
809.094727	1128.658325	2286.898438	1779.457275	56.188602
809.402649	1146.862427	2298.276123	1818.141113	58.300392
809.710510	1133.209351	2239.112549	1761.253052	56.790115
810.018311	1253.812012	2230.010498	1688.436401	44.522133
810.326050	1153.689087	2211.806152	1727.120239	54.193546
810.633667	1137.760376	2293.724854	1699.814087	48.622059
810.941345	1087.698975	2193.602051	1670.232300	52.674900
811.248901	1149.138062	2257.316650	1722.569214	51.745373
811.556396	1153.689087	2179.948975	1777.181763	60.753876
811.863892	1103.627563	2216.357178	1838.620850	66.053177
812.171326	1039.912964	2273.245361	1699.814087	53.505539
812.478699	1051.290649	2161.744873	1636.099487	52.663929
812.786011	1089.974487	2152.642578	1665.681274	54.175598
813.093262	1140.035889	2125.336426	1704.365112	57.274830
813.400391	1142.311401	2011.560425	1686.160889	62.565441
813.707642	1064.943726	2164.020264	1702.089600	57.971020
814.014709	1103.627563	2150.367188	1715.742676	58.478260
814.321716	1146.862427	2136.714111	1736.222412	59.540230
814.628723	1137.760376	2239.112549	1649.752563	46.487598
814.935669	1046.739624	2141.265137	1670.232300	56.964653
815.242554	1210.577026	2118.509766	1699.814087	53.884724
815.549438	1108.178589	2225.459229	1806.763550	62.525471
815.856201	1092.250000	2104.856689	1713.467163	61.348316
816.162964	1121.831787	2091.203613	1756.702026	65.492950
816.469604	1128.658325	2207.255127	1770.355225	59.493679
816.776184	1208.301514	2109.407715	1731.671387	58.080822
817.082825	1155.964600	2159.469238	1711.191650	55.328796
817.389343	1130.933838	2182.224365	1706.640625	54.761913
817.695801	1060.392700	2159.469238	1811.314575	68.322983
818.002197	1044.463989	2173.122314	1720.293701	59.879036
818.308533	1169.617676	2186.775391	1765.804199	58.612988
818.614868	1119.556274	2214.081787	1758.977539	58.419952
818.921143	1128.658325	2216.357178	1822.692139	63.807533
819.227356	1135.484863	2195.877686	1656.579102	49.141624
819.533447	1115.005249	2207.255127	1765.804199	59.583340
819.839539	1087.698975	2245.938965	1758.977539	57.956776
820.145569	1126.382813	2291.449463	1852.273926	62.304684
820.451538	1137.760376	2341.510986	1840.896362	58.412098
820.757568	1144.586914	2421.154053	1984.254150	65.775406
821.063416	1140.035889	2566.787354	1959.223389	57.416271
821.369263	1115.005249	2678.288086	2152.642578	66.375534
821.675049	1165.066650	2819.370361	2200.428711	62.585972
821.980713	1169.617676	2842.125488	2161.744873	59.319736
822.286438	1055.841675	3067.402100	2273.245361	60.520363
822.592102	1094.525513	3269.923340	2480.317627	63.702923
822.897583	1058.117188	4002.641113	3137.943115	70.633690
823.203125	1037.637451	6116.600098	4202.886719	62.320778
823.508545	1115.005249	8312.477539	5693.353027	63.610497
823.813965	1099.076538	10292.180664	6783.327637	61.831680
824.119263	1119.556274	10968.010742	7211.125488	61.853050
824.424622	1101.352051	9909.893555	6614.938965	62.593647
824.729858	1119.556274	8426.253906	5670.597656	62.285889
825.035095	1153.689087	7331.728027	4926.502441	61.068138
825.340149	1140.035889	6259.957520	4355.346680	62.799995
825.645264	1099.076538	5433.943848	4064.080078	68.398949
825.950256	1126.382813	5003.870117	3574.843262	63.145542
826.255310	1135.484863	4612.480469	3329.086914	63.089008
826.560242	1080.872437	4148.274414	3160.698486	67.804161
826.865112	1101.352051	3929.824463	2992.309814	66.854385
827.169922	1112.729614	3806.946289	2855.778564	64.695946
827.474670	1162.791138	3690.894775	2785.237549	64.176422
827.779419	1087.698975	3866.109863	2848.952148	63.390667
828.084045	1176.444214	4257.499512	3181.177979	65.066467
828.388672	1130.933838	4771.767090	3588.496338	67.500000
828.693176	1165.066650	5215.493652	3909.344727	67.752808
828.997681	1178.719727	5192.738281	3866.109863	66.950119
829.302124	1146.862427	4774.042480	3463.342773	63.864498
829.606567	1126.382813	4041.324951	3083.330566	67.135048
829.910828	1142.311401	3647.659912	2798.890625	66.121704
830.215149	1124.107300	3463.342773	2641.879639	64.883270
830.519348	1217.403687	3160.698486	2575.889648	69.906326
830.823547	1094.525513	2885.360352	2405.225586	73.189331
831.127686	1087.698975	2844.401123	2284.622803	68.134705
831.431763	1108.178589	2687.390137	2216.357178	70.172905
831.735779	1108.178589	2544.032227	2075.274902	67.353401
832.039734	1115.005249	2509.899414	2054.795166	67.373566
832.343628	1117.280762	2400.674561	1911.437500	61.879429
832.647461	1153.689087	2282.347412	1904.610962	66.532257
832.951233	1196.923950	2350.613037	1890.957764	60.157787
833.255127	1117.280762	2255.041016	1979.703125	75.800011
833.558777	1149.138062	2311.929199	1947.845825	68.688843
833.862366	1203.750488	2291.449463	1915.988525	65.481171
834.165955	1162.791138	2423.429688	2043.417725	69.855598
834.469482	1178.719727	2785.237549	2186.775391	62.747868
834.773010	1160.515625	3112.912354	2587.267090	73.076927
835.076416	1110.454102	3465.618164	2773.859863	70.628021
835.379822	1126.382813	3697.721191	3012.789551	73.362839
835.683105	1180.995239	3620.353516	2999.136475	74.533585
835.986389	1037.637451	3502.026611	2760.206787	69.898430
836.289612	1067.219238	3228.964111	2621.399902	71.894730
836.592773	1105.903076	3042.371338	2421.154053	67.920090
836.895874	1108.178589	2801.166016	2239.112549	66.801086
837.198914	1149.138062	2612.297852	2182.224365	70.606529
837.501892	1085.423462	2528.103516	2036.591064	65.930595
837.804871	1135.484863	2332.408936	1988.805176	71.292770
838.107666	1117.280762	2227.734863	1961.498901	76.024590
838.410583	1067.219238	2259.592041	1968.325439	75.572525
838.713379	1133.209351	2154.918213	1884.131226	73.496658
839.016052	1078.596802	2038.866699	1802.212524	75.355453
839.318787	1126.382813	2032.040039	1843.171875	79.145737
839.621338	1149.138062	1950.121338	1774.906250	78.125000
839.923889	1087.698975	1913.713013	1763.528564	81.818169
840.226440	1085.423462	1938.743774	1740.773438	76.799995
840.528931	1117.280762	1988.805176	1695.262939	66.318527
840.831299	1160.515625	2002.458252	1761.253052	71.351349
841.133606	1180.995239	2082.101563	1831.794189	72.222214
841.435913	1067.219238	2209.530762	2045.693237	85.657372
841.738220	1133.209351	2216.357178	1941.019287	74.579842
842.040405	1067.219238	2259.592041	1984.254150	76.908409
842.342529	1142.311401	2041.142212	1881.855713	82.278481
842.644592	1128.658325	2036.591064	1781.732788	71.929825
842.946594	1133.209351	1909.161987	1765.804199	81.524933
843.248596	1080.872437	1895.508789	1672.507813	72.625702
843.550598	1174.168701	1884.131226	1695.262939	73.397430
843.852478	1153.689087	1829.518677	1652.028076	73.737373
844.154236	1108.178589	1890.957764	1579.211426	60.174419
844.455994	1153.689087	1829.518677	1592.864502	64.983162
844.757690	1165.066650	1754.426514	1652.028076	82.625481
845.059326	1105.903076	1770.355225	1579.211426	71.232872
845.360962	1133.209351	1781.732788	1581.486938	69.122803
845.662476	1190.097412	1608.793213	1549.629639	85.869553
845.963989	1110.454102	1747.599976	1588.313477	74.999992
846.265381	1140.035889	1677.058838	1542.803101	75.000000
846.566772	1137.760376	1642.926025	1622.446289	95.945938
846.868042	1117.280762	1665.681274	1540.527588	77.178413
847.169373	1096.801025	1615.619751	1556.456177	88.596481
847.470581	1126.382813	1581.486938	1538.252075	90.500008
847.771729	1117.280762	1706.640625	1533.701050	70.656372
848.072815	1060.392700	1690.711914	1504.119263	70.397118
848.373901	1117.280762	1640.650513	1538.252075	80.434784
848.674866	1151.413574	1624.721802	1515.496826	76.923080
848.975891	1071.770264	1588.313477	1438.129150	70.925117
849.276794	1062.668213	1586.037964	1510.945801	85.652176
849.577637	1101.352051	1670.232300	1556.456177	79.999985
849.878357	1089.974487	1633.823975	1469.986450	69.874474
850.179077	1014.882263	1586.037964	1535.976563	91.235069
850.479736	1167.342163	1547.354126	1495.017212	86.227562
850.780396	1112.729614	1581.486938	1458.608887	73.786423
851.080994	1135.484863	1601.966675	1465.435425	70.731712
851.381470	1101.352051	1626.997314	1479.088501	71.861481
851.681946	1074.045776	1615.619751	1524.598877	83.193268
851.982361	1096.801025	1636.099487	1417.649414	59.493660
852.282715	1135.484863	1579.211426	1531.425537	89.230782
852.583008	1146.862427	1565.558350	1515.496826	88.043465
852.883240	1112.729614	1622.446289	1488.190552	73.660713
853.183411	1108.178589	1579.211426	1469.986450	76.811600
853.483521	1133.209351	1556.456177	1522.323364	91.935486
853.783630	1101.352051	1642.926025	1456.333252	65.546211
854.083679	1135.484863	1656.579102	1456.333252	61.572048
854.383667	1101.352051	1490.466064	1561.007324	118.128685
854.683533	1178.719727	1531.425537	1438.129150	73.548386
854.983337	1133.209351	1547.354126	1435.853638	73.076927
855.283203	1135.484863	1524.598877	1419.924927	73.099411
855.582886	1080.872437	1570.109375	1476.812988	80.930222
855.882629	1130.933838	1586.037964	1429.027100	65.500015
856.182312	1121.831787	1454.057739	1499.568237	113.698662
856.481873	1121.831787	1531.425537	1449.506714	79.999985
856.781372	1089.974487	1615.619751	1429.027100	64.502174
857.080872	1153.689087	1556.456177	1438.129150	70.621475
857.380310	1162.791138	1497.292725	1460.884399	89.115646
857.679688	1074.045776	1535.976563	1435.853638	78.325127
857.979004	1137.760376	1579.211426	1385.792114	56.185558
858.278259	1096.801025	1531.425537	1474.537476	86.910988
858.577454	1171.893188	1524.598877	1508.670288	95.483887
858.876648	1128.658325	1490.466064	1413.098389	78.616356
859.175720	1103.627563	1504.119263	1403.996338	75.000000
859.474792	1019.433350	1547.354126	1483.639526	87.931030
859.773743	1058.117188	1638.375000	1460.884399	69.411766
860.072693	1158.240112	1592.864502	1517.772339	82.722519
860.371521	1251.536499	1535.976563	1438.129150	65.599991
860.670349	1187.821899	1529.150024	1406.271851	63.999985
860.969116	1137.760376	1485.915039	1467.710938	94.771263
861.267883	1183.270874	1520.047852	1369.863525	55.405407
861.566589	1071.770264	1497.292725	1399.445313	77.005348
861.865112	1076.321289	1522.323364	1447.231201	83.163269
862.163635	1126.382813	1545.078613	1417.649414	69.565208
862.462158	1137.760376	1504.119263	1429.027100	79.503113
862.760620	1135.484863	1542.803101	1561.007324	104.469284
863.059021	1053.566162	1558.731689	1495.017212	87.387405
863.357361	1153.689087	1533.701050	1515.496826	95.209564
863.655640	1180.995239	1474.537476	1410.822876	78.294571
863.953857	1108.178589	1561.007324	1463.159912	78.391960
864.251953	1196.923950	1558.731689	1460.884399	72.956001
864.550110	1144.586914	1551.905151	1465.435425	78.770966
864.848206	1058.117188	1608.793213	1522.323364	84.297508
865.146179	1146.862427	1538.252075	1479.088501	84.883713
865.444092	1064.943726	1551.905151	1492.741699	87.850487
865.741943	1092.250000	1472.261963	1524.598877	113.772438
866.039795	1112.729614	1460.884399	1556.456177	127.450943
866.337646	1153.689087	1522.323364	1410.822876	69.753090
866.635376	1035.361938	1438.129150	1397.169800	89.830513
866.933044	1199.199463	1508.670288	1451.782227	81.617630
867.230652	1035.361938	1533.701050	1474.537476	88.127846
867.528198	1151.413574	1488.190552	1483.639526	98.648651
867.825745	1165.066650	1547.354126	1465.435425	78.571442
868.123230	1076.321289	1551.905151	1383.516602	64.593300
868.420593	1183.270874	1551.905151	1442.680176	70.370369
868.717896	1212.852539	1504.119263	1454.057739	82.812485
869.015198	1142.311401	1454.057739	1433.578125	93.430679
869.312439	1135.484863	1483.639526	1435.853638	86.274521
869.609619	1119.556274	1454.057739	1467.710938	104.081657
869.906738	1087.698975	1474.537476	1465.435425	97.647064
870.203796	1069.494751	1545.078613	1504.119263	91.387566
870.500854	1142.311401	1574.660400	1501.843750	83.157898
870.797791	1112.729614	1524.598877	1567.833862	110.497261
871.094666	1103.627563	1604.242188	1424.476074	64.090919
871.391602	1069.494751	1563.282837	1467.710938	80.645157
871.688293	1110.454102	1542.803101	1483.639526	86.315781
871.985107	1062.668213	1554.180664	1433.578125	75.462975
872.281738	1053.566162	1520.047852	1458.608887	86.829285
872.578369	1121.831787	1549.629639	1429.027100	71.808525
872.874939	1119.556274	1556.456177	1492.741699	85.416687
873.171509	1094.525513	1467.710938	1447.231201	94.512184
873.467957	1049.015137	1426.751587	1399.445313	92.771080
873.764343	1171.893188	1490.466064	1474.537476	95.000015
874.060669	1069.494751	1488.190552	1390.343262	76.630455
874.356995	1085.423462	1595.140137	1510.945801	83.482132
874.653198	1078.596802	1510.945801	1449.506714	85.789467
874.949463	1124.107300	1472.261963	1460.884399	96.732040
875.245544	1133.209351	1579.211426	1492.741699	80.612259
875.541626	1174.168701	1529.150024	1456.333252	79.487152
875.837646	1158.240112	1574.660400	1403.996338	59.016392
876.133606	1178.719727	1522.323364	1419.924927	70.198677
876.429565	1142.311401	1490.466064	1535.976563	113.071922
876.725403	1176.444214	1554.180664	1456.333252	74.096382
877.021179	1105.903076	1558.731689	1554.180664	98.994980
877.316956	1128.658325	1465.435425	1520.047852	116.216194
877.612610	1119.556274	1574.660400	1469.986450	77.000000
877.908203	1115.005249	1499.568237	1485.915039	96.449684
878.203857	1074.045776	1524.598877	1474.537476	88.888901
878.499390	1078.596802	1517.772339	1465.435425	88.082916
878.794800	1121.831787	1481.364014	1476.812988	98.734184
879.090271	1094.525513	1495.017212	1515.496826	105.113617
879.385559	1149.138062	1567.833862	1469.986450	76.630432
879.680847	1130.933838	1611.068726	1588.313477	95.260658
879.976196	1124.107300	1570.109375	1595.140137	105.612251
880.271301	1140.035889	1642.926025	1597.415649	90.950233
880.566467	1208.301514	1615.619751	1638.375000	105.586601
880.861572	1126.382813	1702.089600	1722.569214	103.557297
881.156555	1119.556274	1822.692139	1784.008301	94.498383
881.451477	1069.494751	1906.886475	1824.967651	90.217384
881.746460	1112.729614	2282.347412	2250.489990	97.276253
882.041321	1039.912964	2848.952148	2648.706299	88.930817
882.336121	1110.454102	3599.874023	3492.924316	95.703827
882.630798	1053.566162	4205.162598	4050.427002	95.090248
882.925537	1078.596802	4642.062500	4480.500488	95.466156
883.220215	1130.933838	4867.338867	4437.265625	88.489655
883.514771	1055.841675	4448.643066	4186.958496	92.287064
883.809326	1112.729614	4105.039551	3893.416016	92.927757
884.103760	1169.617676	3834.252441	3745.507324	96.669518
884.398132	1165.066650	3590.771729	3408.730225	92.495316
884.692505	1176.444214	3363.219727	3210.759766	93.028099
884.986816	1110.454102	3101.534912	3060.575439	97.942856
885.281067	1153.689087	2978.656738	2678.288086	83.541153
885.575256	1160.515625	2755.655762	2623.675537	91.726105
885.869385	1196.923950	2480.317627	2427.980713	95.921989
886.163452	1092.250000	2346.062012	2307.378174	96.914703
886.457458	1162.791138	2150.367188	2141.265137	99.078346
886.751465	1194.648438	2098.030273	2038.866699	93.450882
887.045410	1112.729614	2066.172852	1897.784302	82.338898
887.339233	1162.791138	1915.988525	1875.029175	94.561935
887.632996	1112.729614	1793.110352	1827.243164	105.016724
887.926758	1153.689087	1838.620850	1765.804199	89.368774
888.220398	1187.821899	1774.906250	1617.895264	73.255806
888.514099	1121.831787	1686.160889	1579.211426	81.048386
888.807678	1037.637451	1611.068726	1629.272949	103.174614
889.101196	1135.484863	1649.752563	1633.823975	96.902664
889.394653	1158.240112	1597.415649	1608.793213	102.590668
889.688049	1067.219238	1476.812988	1604.242188	131.111115
889.981384	1105.903076	1611.068726	1488.190552	75.675667
890.274719	1099.076538	1538.252075	1542.803101	101.036263
890.567932	1140.035889	1604.242188	1451.782227	67.156853
>>>>>End Processed Spectral Data<<<<<
