Jaz Data File
++++++++++++++++++++++++++++++++++++
Date: Sun Sep 29 07:27:50 2024
User: jaz
Dark Spectrum Present: Yes
Reference Spectrum Present: Yes
Processed Spectrum Present: Yes
Spectrometers: JAZA3692
Integration Time (usec): 40000 (JAZA3692)
Spectra Averaged: 1 (JAZA3692)
Boxcar Smoothing: 0 (JAZA3692)
Correct for Electrical Dark: No (JAZA3692)
Strobe/Lamp Enabled: Yes (JAZA3692)
Correct for Detector Non-linearity: No (JAZA3692)
Correct for Stray Light: No (JAZA3692)
Number of Pixels in Processed Spectrum: 2048
>>>>>Begin Processed Spectral Data<<<<<
W	D	R	S	P
190.244385	0.000000	0.000000	0.000000	0.000000
190.627136	0.000000	0.000000	0.000000	0.000000
191.009842	1105.903076	1067.219238	1112.729614	-17.647003
191.392532	1112.729614	1064.943726	1071.770264	85.714325
191.775177	1137.760376	1119.556274	1074.045776	350.001343
192.157791	1144.586914	1085.423462	1105.903076	65.384689
192.540390	1196.923950	1151.413574	1185.546387	24.999933
192.922943	1178.719727	1074.045776	1146.862427	30.434793
193.305481	1183.270874	1162.791138	1112.729614	344.444183
193.687958	1105.903076	1190.097412	1069.494751	-43.243198
194.070419	1112.729614	1087.698975	1144.586914	-127.273216
194.452866	1221.954712	1178.719727	1128.658325	215.789108
194.835251	1187.821899	1249.260864	1158.240112	-48.148251
195.217621	1199.199463	1210.577026	1112.729614	-760.003235
195.599960	1142.311401	1135.484863	1171.893188	-433.335114
195.982254	1078.596802	1137.760376	1171.893188	157.692276
196.364517	1124.107300	1146.862427	1115.005249	-40.000000
196.746750	1167.342163	1128.658325	1121.831787	117.647003
197.128952	1178.719727	1169.617676	1112.729614	725.002686
197.511139	1167.342163	1233.332275	1144.586914	-34.482815
197.893280	1165.066650	1092.250000	1130.933838	46.875011
198.275391	1087.698975	1187.821899	1133.209351	45.454502
198.657471	1119.556274	1206.026001	1178.719727	68.420998
199.039520	1130.933838	1256.087524	1128.658325	-1.818175
199.421539	1171.893188	1215.128052	1119.556274	-121.052574
199.803513	1185.546387	1110.454102	1074.045776	148.484772
200.185471	1099.076538	1144.586914	1155.964600	125.000198
200.567383	1208.301514	1162.791138	1128.658325	175.000061
200.949265	1167.342163	1221.954712	1169.617676	4.166648
201.331131	1124.107300	1137.760376	1169.617676	333.334229
201.712967	1140.035889	1101.352051	1192.372925	-135.294327
202.094742	1133.209351	1180.995239	1119.556274	-28.571356
202.476517	1083.147949	1199.199463	1169.617676	74.509781
202.858231	1128.658325	1153.689087	1099.076538	-118.181732
203.239944	1103.627563	1155.964600	1128.658325	47.826096
203.621582	1121.831787	1130.933838	1094.525513	-300.001343
204.003235	1137.760376	1112.729614	1151.413574	-54.545677
204.384827	1144.586914	1185.546387	1153.689087	22.222387
204.766388	1108.178589	1215.128052	1049.015137	-55.319073
205.147934	1078.596802	1153.689087	1080.872437	3.030451
205.529449	1146.862427	1133.209351	1124.107300	166.666672
205.910904	1119.556274	1206.026001	1162.791138	50.000000
206.292343	1115.005249	1092.250000	1117.280762	-9.999947
206.673767	1140.035889	1158.240112	1094.525513	-249.998993
207.055115	1233.332275	1094.525513	1096.801025	98.360664
207.436462	1076.321289	1174.168701	1158.240112	83.720993
207.817780	1151.413574	1096.801025	1130.933838	37.500057
208.199051	1126.382813	1187.821899	1158.240112	51.851845
208.580307	1044.463989	1108.178589	1108.178589	100.000000
208.961517	1092.250000	1126.382813	1112.729614	59.999786
209.342712	1069.494751	1121.831787	1094.525513	47.826096
209.723846	1092.250000	1149.138062	1094.525513	3.999983
210.104965	1187.821899	1140.035889	1112.729614	157.142822
210.486069	1128.658325	1190.097412	1069.494751	-96.296310
210.867111	1078.596802	1128.658325	1169.617676	181.818024
211.248123	1176.444214	1130.933838	1069.494751	235.000168
211.629120	1130.933838	1169.617676	1167.342163	94.117668
212.010071	1089.974487	1142.311401	1165.066650	143.478394
212.390991	1126.382813	1128.658325	1083.147949	-1900.005371
212.771881	1187.821899	1128.658325	1092.250000	161.538406
213.152756	1160.515625	1171.893188	1137.760376	-200.001068
213.533569	1115.005249	1146.862427	1117.280762	7.142857
213.914368	1124.107300	1196.923950	1153.689087	40.625031
214.295135	1199.199463	1201.474976	1105.903076	-4100.016113
214.675858	1140.035889	1112.729614	1137.760376	8.333296
215.056549	1130.933838	1101.352051	1117.280762	46.153656
215.437225	1153.689087	1130.933838	1171.893188	-79.999573
215.817841	1155.964600	1196.923950	1162.791138	16.666616
216.198441	1115.005249	1176.444214	1144.586914	48.148052
216.579025	1140.035889	1160.515625	1135.484863	-22.222090
216.959549	1128.658325	1233.332275	1201.474976	69.565208
217.340057	1067.219238	1144.586914	1115.005249	61.764828
217.720535	1165.066650	1160.515625	1140.035889	550.002686
218.100967	1153.689087	1160.515625	1087.698975	-966.670227
218.481369	1151.413574	1128.658325	1167.342163	-69.999626
218.861740	1119.556274	1117.280762	1144.586914	-1100.000000
219.242065	1119.556274	1146.862427	1130.933838	41.666668
219.622391	1153.689087	1115.005249	1067.219238	223.529648
220.002670	1083.147949	1142.311401	1105.903076	38.461460
220.382919	1146.862427	1130.933838	1115.005249	200.000000
220.763123	1128.658325	1162.791138	1117.280762	-33.333214
221.143295	1128.658325	1190.097412	1099.076538	-48.148155
221.523453	1169.617676	1180.995239	1126.382813	-380.001068
221.903549	1121.831787	1194.648438	1153.689087	43.750019
222.283630	1142.311401	1212.852539	1108.178589	-48.387104
222.663696	1160.515625	1126.382813	1201.474976	-119.999931
223.043701	1115.005249	1196.923950	1105.903076	-11.111227
223.423676	1058.117188	1142.311401	1124.107300	78.378441
223.803635	1140.035889	1149.138062	1153.689087	149.999329
224.183548	1080.872437	1192.372925	1153.689087	65.306129
224.563431	1033.086426	1192.372925	1155.964600	77.142868
224.943283	1115.005249	1174.168701	1053.566162	-103.846352
225.323105	1110.454102	1144.586914	1133.209351	66.666786
225.702881	1133.209351	1199.199463	1124.107300	-13.793053
226.082642	1085.423462	1149.138062	1080.872437	-7.142830
226.462357	1146.862427	1244.709839	1115.005249	-32.558018
226.842041	1087.698975	1165.066650	1094.525513	8.823502
227.221695	1124.107300	1178.719727	1121.831787	-4.166657
227.601318	1137.760376	1171.893188	1162.791138	73.333427
227.980911	1135.484863	1171.893188	1140.035889	12.499958
228.360474	1058.117188	1206.026001	1108.178589	33.846123
228.739990	1171.893188	1290.220337	1174.168701	1.923069
229.119476	1105.903076	1231.056763	1196.923950	72.727280
229.498932	1074.045776	1237.883301	1183.270874	66.666718
229.878372	1124.107300	1324.353149	1192.372925	34.090908
230.257736	1167.342163	1454.057739	1219.679199	18.253992
230.637115	1126.382813	1383.516602	1176.444214	19.469009
231.016449	1067.219238	1367.588013	1155.964600	29.545469
231.395737	1155.964600	1381.241089	1126.382813	-13.131325
231.774994	1144.586914	1306.148926	1178.719727	21.126757
232.154221	1128.658325	1253.812012	1228.781250	79.999977
232.533417	1087.698975	1292.495850	1210.577026	59.999966
232.912582	1071.770264	1292.495850	1224.230225	69.072174
233.291702	1117.280762	1278.842651	1137.760376	12.676018
233.670792	1149.138062	1272.016113	1167.342163	14.814771
234.049866	1151.413574	1328.904175	1140.035889	-6.410303
234.428894	1117.280762	1310.699951	1124.107300	3.529401
234.807892	1155.964600	1315.250977	1206.026001	31.428553
235.186874	1178.719727	1256.087524	1199.199463	26.470621
235.565781	1128.658325	1269.740601	1194.648438	46.774204
235.944687	1087.698975	1328.904175	1208.301514	49.999973
236.323547	1133.209351	1317.526489	1240.158813	58.024696
236.702377	1110.454102	1272.016113	1171.893188	38.028175
237.081177	1115.005249	1278.842651	1174.168701	36.111076
237.459946	1130.933838	1297.046875	1199.199463	41.095886
237.838669	1167.342163	1340.281738	1146.862427	-11.842134
238.217361	1130.933838	1353.934937	1192.372925	27.551023
238.596039	1110.454102	1381.241089	1196.923950	31.932793
238.974670	1087.698975	1326.628662	1194.648438	44.761898
239.353271	1030.810913	1406.271851	1196.923950	44.242428
239.731842	1115.005249	1381.241089	1146.862427	11.965774
240.110367	1146.862427	1401.720825	1153.689087	2.678609
240.488876	1140.035889	1322.077637	1183.270874	23.750038
240.867340	1089.974487	1399.445313	1190.097412	32.352943
241.245789	1151.413574	1392.618774	1192.372925	16.981123
241.624176	1124.107300	1460.884399	1206.026001	24.324308
242.002548	1130.933838	1526.874512	1180.995239	12.643662
242.380890	1169.617676	1479.088501	1292.495850	39.705898
242.759186	1128.658325	1633.823975	1194.648438	13.063064
243.137451	1144.586914	1692.987427	1274.291626	23.651457
243.515686	1146.862427	1802.212524	1278.842651	20.138889
243.893890	1142.311401	1745.324463	1228.781250	14.339631
244.272049	1055.841675	1875.029175	1301.597900	29.999996
244.650192	1140.035889	1761.253052	1210.577026	11.355310
245.028290	1135.484863	1672.507813	1251.536499	21.610182
245.406357	1135.484863	1663.405762	1253.812012	22.413803
245.784393	1144.586914	1617.895264	1256.087524	23.557711
246.162384	1149.138062	1617.895264	1246.985352	20.873768
246.540359	1140.035889	1647.477051	1347.108276	40.807171
246.918289	1128.658325	1704.365112	1278.842651	26.086946
247.296204	1146.862427	1843.171875	1326.628662	25.817003
247.674057	1201.474976	2100.305664	1292.495850	10.126587
248.051895	1162.791138	2296.000488	1413.098389	22.088350
248.429703	1146.862427	2355.164063	1360.761475	17.702454
248.807465	1155.964600	2434.807373	1415.373901	20.284691
249.185196	1124.107300	2189.051025	1319.802124	18.376072
249.562897	1096.801025	2091.203613	1285.669312	18.993141
249.940567	1110.454102	1945.570313	1324.353149	25.613089
250.318192	1155.964600	1904.610962	1278.842651	16.413364
250.695801	1167.342163	1831.794189	1274.291626	16.095890
251.073349	1174.168701	1733.946899	1237.883301	11.382115
251.450882	1135.484863	1736.222412	1242.434326	17.803026
251.828400	1133.209351	1779.457275	1217.403687	13.028179
252.205872	1115.005249	1758.977539	1180.995239	10.247334
252.583313	1130.933838	1752.151001	1265.189575	21.611723
252.960693	1112.729614	1813.590088	1272.016113	22.727276
253.338074	1071.770264	1909.161987	1299.322388	27.173916
253.715408	1142.311401	1906.886475	1251.536499	14.285726
254.092682	1099.076538	1868.202637	1283.393677	23.964489
254.469955	1087.698975	1749.875488	1219.679199	19.931276
254.847198	1121.831787	1683.885376	1272.016113	26.720642
255.224365	1149.138062	1677.058838	1215.128052	12.499980
255.601563	1115.005249	1738.497925	1180.995239	10.583924
255.978683	1089.974487	1747.599976	1265.189575	26.643597
256.355743	1115.005249	1720.293701	1242.434326	21.052620
256.732819	1171.893188	1720.293701	1169.617676	-0.414936
257.109894	1133.209351	1631.548462	1224.230225	18.264847
257.486877	1183.270874	1708.916138	1308.424438	23.809511
257.863831	1142.311401	1731.671387	1260.638550	20.077229
258.240753	1135.484863	1870.478149	1276.567139	19.195044
258.617645	1162.791138	1818.141113	1281.118164	18.055548
258.994507	1060.392700	1970.601074	1306.148926	26.999996
259.371307	1078.596802	2016.111450	1335.730713	27.427189
259.748108	1096.801025	2182.224365	1417.649414	29.559746
260.124878	1121.831787	2361.990479	1328.904175	16.697248
260.501617	1094.525513	2630.501953	1338.006226	15.851852
260.878296	1103.627563	2949.074951	1431.302612	17.755859
261.254944	1115.005249	3015.064941	1531.425537	21.916168
261.631561	1099.076538	3010.513916	1447.231201	18.214285
262.008179	1119.556274	2755.655762	1424.476074	18.636995
262.384735	1096.801025	2416.603027	1376.690063	21.206896
262.761261	1135.484863	2086.652588	1331.179688	20.574165
263.137695	1060.392700	2170.846924	1262.914063	18.237705
263.514191	1108.178589	2093.479248	1319.802124	21.478067
263.890594	1110.454102	2152.642578	1278.842651	16.157207
264.267029	1108.178589	2002.458252	1301.597900	21.628504
264.643341	1067.219238	2016.111450	1278.842651	22.302155
265.019653	1094.525513	2116.234375	1331.179688	23.162584
265.395935	1108.178589	2066.172852	1297.046875	19.714970
265.772217	1144.586914	1966.049927	1312.975464	20.498615
266.148407	1128.658325	1993.356201	1283.393677	17.894730
266.524597	1137.760376	2070.723877	1269.740601	14.146344
266.900726	1119.556274	2027.489014	1237.883301	13.032577
267.276855	1151.413574	2243.663574	1353.934937	18.541668
267.652924	1085.423462	2209.530762	1349.383789	23.481773
268.028992	1105.903076	2327.857666	1408.547363	24.767229
268.404999	1183.270874	2305.102539	1306.148926	10.953341
268.781006	1137.760376	2389.296875	1342.557251	16.363636
269.156921	1062.668213	2296.000488	1372.139038	25.092251
269.532837	1171.893188	2346.062012	1403.996338	19.767443
269.908661	1165.066650	2296.000488	1422.200562	22.736423
270.284546	1112.729614	2250.489990	1258.363037	12.800009
270.660339	1076.321289	2248.214600	1367.588013	24.854372
271.036133	1185.546387	2282.347412	1333.455200	13.485474
271.411835	1101.352051	2473.491211	1399.445313	21.724710
271.787537	1137.760376	2493.970703	1372.139038	17.281881
272.163239	1151.413574	2703.318604	1392.618774	15.542523
272.538849	1105.903076	2873.982666	1447.231201	19.305021
272.914459	1119.556274	2960.452637	1435.853638	17.181704
273.290070	1165.066650	2855.778564	1463.159912	17.631227
273.665588	1080.872437	2673.737061	1347.108276	16.714279
274.041046	1135.484863	2707.869873	1381.241089	15.629519
274.416565	1180.995239	2664.634766	1465.435425	19.171785
274.791962	1117.280762	2637.328613	1497.292725	25.000000
275.167389	1055.841675	2553.134277	1410.822876	23.708204
275.542755	1121.831787	2450.735840	1392.618774	20.376715
275.918060	1033.086426	2455.286865	1444.955688	28.960001
276.293365	1117.280762	2514.450439	1399.445313	20.195438
276.668640	1124.107300	2523.552490	1408.547363	20.325203
277.043854	1060.392700	2614.573486	1419.924927	23.133230
277.419037	1083.147949	2546.307861	1401.720825	21.772936
277.794189	1119.556274	2557.685303	1447.231201	22.784807
278.169312	1126.382813	2548.583252	1413.098389	20.159998
278.544373	1117.280762	2607.746826	1431.302612	21.068703
278.919464	1135.484863	2580.440674	1417.649414	19.527555
279.294464	1103.627563	2559.960938	1483.639526	26.093748
279.669464	1171.893188	2573.614014	1522.323364	24.999998
280.044403	1165.066650	2630.501953	1417.649414	17.236023
280.419312	1206.026001	2650.981689	1508.670288	20.944883
280.794189	1140.035889	2594.093750	1495.017212	24.413149
281.169037	1121.831787	2728.349365	1542.803101	26.203966
281.543854	1192.372925	2710.145264	1469.986450	18.290854
281.918671	1144.586914	2769.308838	1540.527588	24.369751
282.293365	1121.831787	2908.115479	1545.078613	23.694267
282.668091	1096.801025	3165.249512	1620.170776	25.302528
283.042786	1089.974487	3099.259277	1601.966675	25.481316
283.417419	1094.525513	3281.301025	1617.895264	23.933403
283.792053	1146.862427	3197.106689	1579.211426	21.087685
284.166595	1130.933838	2990.034424	1574.660400	23.867807
284.541138	1121.831787	3035.544678	1633.823975	26.753866
284.915619	1080.872437	2910.391113	1586.037964	27.611937
285.290100	1121.831787	3008.238525	1542.803101	22.316042
285.664520	1165.066650	3094.708252	1540.527588	19.457548
286.038940	1119.556274	3081.055176	1565.558350	22.737820
286.413300	1105.903076	3215.310791	1615.619751	24.163971
286.787628	1153.689087	3281.301025	1633.823975	22.566847
287.161896	1160.515625	3399.628174	1672.507813	22.865852
287.536194	1130.933838	3390.525879	1604.242188	20.946629
287.910400	1128.658325	3388.250488	1695.262939	25.075525
288.284607	1003.504700	3351.842041	1720.293701	30.523254
288.658752	1155.964600	3060.575439	1652.028076	26.045399
289.032867	1121.831787	3005.962891	1604.242188	25.603867
289.406921	1121.831787	3083.330566	1626.997314	25.754057
289.781006	1124.107300	3160.698486	1572.384888	22.011171
290.154999	1146.862427	3194.831299	1686.160889	26.333332
290.529022	1133.209351	3281.301025	1652.028076	24.152540
290.902954	1053.566162	3404.179199	1758.977539	30.009676
291.276825	1103.627563	3479.271240	1674.783325	24.042149
291.650757	1069.494751	3458.791504	1683.885376	25.714285
292.024597	1094.525513	3392.801514	1697.538574	26.237627
292.398407	1085.423462	3401.903564	1656.579102	24.656187
292.772156	1178.719727	3345.015625	1615.619751	20.168068
293.145905	1096.801025	3247.168213	1599.691162	23.386246
293.519592	1146.862427	3217.586426	1579.211426	20.879122
293.893280	1130.933838	3285.852051	1640.650513	23.653645
294.266907	1078.596802	3228.964111	1722.569214	29.947090
294.640533	1069.494751	3429.209961	1702.089600	26.808100
295.014069	1083.147949	3429.209961	1661.130127	24.636271
295.387604	1121.831787	3686.343750	1736.222412	23.957409
295.761078	1085.423462	3754.609375	1749.875488	24.893433
296.134552	1128.658325	3677.241699	1756.702026	24.642853
296.507996	1165.066650	3718.200928	1727.120239	22.014259
296.881378	1067.219238	3759.160400	1761.253052	25.781908
297.254730	1080.872437	3988.988037	1804.488037	24.882627
297.628021	1126.382813	4070.906738	1793.110352	22.642965
298.001282	1142.311401	4159.651855	1777.181763	21.040728
298.374573	1121.831787	4282.530273	1934.192627	25.701941
298.747803	1096.801025	4257.499512	1877.304688	24.694025
299.121002	1096.801025	3988.988037	1868.202637	26.671913
299.494141	1124.107300	3729.578613	1754.426514	24.192139
299.867188	1119.556274	3624.904541	1770.355225	25.976387
300.240265	1076.321289	3720.476563	1731.671387	24.784857
300.613312	1174.168701	3681.792725	1629.272949	18.148823
300.986328	1224.230225	3520.230713	1743.048950	22.596630
301.359314	1094.525513	3499.750977	1688.436401	24.692524
301.732239	1194.648438	3367.770752	1713.467163	23.874346
302.105103	1171.893188	3447.414063	1613.344238	19.400000
302.477997	1080.872437	3608.976074	1615.619751	21.152113
302.850830	1149.138062	3593.047363	1672.507813	21.415270
303.223602	1140.035889	3422.383301	1611.068726	20.638086
303.596375	1119.556274	3497.475586	1670.232300	23.157892
303.969116	1101.352051	3251.719238	1667.956787	26.349209
304.341766	1110.454102	3319.984863	1590.588989	21.730175
304.714478	1135.484863	3324.535889	1608.793213	21.621622
305.087067	1051.290649	3224.413086	1620.170776	26.178005
305.459656	1126.382813	3279.025391	1683.885376	25.898520
305.832214	1085.423462	3165.249512	1617.895264	25.601746
306.204681	1174.168701	3190.280273	1595.140137	20.880363
306.577148	1151.413574	3299.505127	1606.517700	21.186440
306.949646	1180.995239	3397.352539	1633.823975	20.431215
307.322021	1126.382813	3228.964111	1579.211426	21.536795
307.694397	1128.658325	3308.607178	1601.966675	21.711903
308.066742	1058.117188	3408.730225	1531.425537	20.135529
308.439026	1092.250000	3370.046387	1579.211426	21.378620
308.811279	1128.658325	3527.057129	1590.588989	19.259960
309.183502	1067.219238	3677.241699	1679.334351	23.452484
309.555695	1112.729614	3654.486328	1590.588989	18.800358
309.927887	1071.770264	3656.761963	1690.711914	23.943661
310.299988	1146.862427	3688.619141	1688.436401	21.307072
310.672058	1146.862427	3788.742188	1722.569214	21.791557
311.044128	1155.964600	3777.364502	1686.160889	20.225693
311.416168	1119.556274	3872.936523	1672.507813	20.082642
311.788147	1115.005249	3781.915527	1683.885376	21.331057
312.160065	1199.199463	3829.701416	1652.028076	17.214533
312.531982	1089.974487	3822.875000	1645.201538	20.316402
312.903870	1130.933838	3659.037354	1652.028076	20.612061
313.275696	1117.280762	3579.394287	1647.477051	21.534193
313.647491	1149.138062	3627.180176	1604.242188	18.365473
314.019318	1119.556274	3554.363525	1665.681274	22.429909
314.391022	1124.107300	3488.373291	1661.130127	22.714146
314.762726	1124.107300	3556.638916	1624.721802	20.579979
315.134369	1126.382813	3684.068115	1679.334351	21.619217
315.505981	1194.648438	3668.139648	1661.130127	18.859241
315.877594	1092.250000	3866.109863	1640.650513	19.770304
316.249146	1096.801025	3740.956299	1606.517700	19.277109
316.620636	1169.617676	3606.700439	1581.486938	16.900093
316.992157	1194.648438	3513.404053	1567.833862	16.094212
317.363586	1121.831787	3411.005615	1579.211426	19.980118
317.735016	1094.525513	3442.863037	1529.150024	18.507753
318.106354	1117.280762	3385.974854	1558.731689	19.458372
318.477722	1099.076538	3399.628174	1620.170776	22.650837
318.849060	1153.689087	3458.791504	1636.099487	20.927937
319.220306	1180.995239	3504.302002	1613.344238	18.609209
319.591522	1083.147949	3602.149414	1677.058838	23.577234
319.962738	1103.627563	3631.731201	1535.976563	17.101713
320.333923	1167.342163	3588.496338	1558.731689	16.165411
320.705017	1076.321289	3492.924316	1611.068726	22.128063
321.076111	1105.903076	3577.118652	1601.966675	20.073668
321.447144	1151.413574	3449.689453	1558.731689	17.722769
321.818176	1160.515625	3467.893799	1531.425537	16.074951
322.189178	1085.423462	3333.637939	1479.088501	17.510120
322.560120	1144.586914	3417.832275	1488.190552	15.115114
322.931030	1115.005249	3508.853027	1601.966675	20.342207
323.301910	1174.168701	3590.771729	1615.619751	18.267422
323.672729	1124.107300	3779.640137	1699.814087	21.679522
324.043549	1140.035889	3829.701416	1663.405762	19.458549
324.414337	1162.791138	3966.232666	1590.588989	15.259739
324.785095	1089.974487	4241.570801	1645.201538	17.617329
325.155792	1080.872437	4216.540039	1681.609863	19.158199
325.526428	1151.413574	4312.111816	1636.099487	15.334773
325.897034	1160.515625	4091.386475	1697.538574	18.322983
326.267670	1078.596802	4116.416992	1686.160889	20.000000
326.638184	1165.066650	3959.406250	1738.497925	20.521173
327.008728	1083.147949	4152.825684	1727.120239	20.978498
327.379211	1101.352051	4064.080078	1654.303589	18.663595
327.749634	1103.627563	4043.600586	1688.436401	19.891640
328.120026	1133.209351	4077.733398	1674.783325	18.392582
328.490417	1115.005249	3841.079102	1611.068726	18.196995
328.860748	1058.117188	3982.161377	1608.793213	18.832685
329.231079	1105.903076	3809.221924	1633.823975	19.528622
329.601318	1171.893188	3797.844238	1615.619751	16.897747
329.971558	1076.321289	3879.762939	1670.232300	21.185068
330.341736	1130.933838	3941.202148	1670.232300	19.190283
330.711914	1133.209351	3925.273438	1729.395752	21.352892
331.082062	1155.964600	4007.192139	1720.293701	19.792496
331.452148	1212.852539	3968.508301	1670.232300	16.597855
331.822174	1137.760376	3943.477539	1613.344238	16.950527
332.192200	1169.617676	4064.080078	1647.477051	16.509434
332.562134	1121.831787	4084.559814	1688.436401	19.124422
332.932129	1119.556274	4134.621094	1667.956787	18.188681
333.302063	1144.586914	4282.530273	1727.120239	18.564177
333.671906	1174.168701	4325.765137	1722.569214	17.400721
334.041718	1126.382813	4314.387207	1754.426514	19.700214
334.411499	1103.627563	4362.173340	1713.467163	18.715084
334.781281	1117.280762	4318.938477	1738.497925	19.402985
335.151001	1160.515625	4423.612305	1733.946899	17.573223
335.520721	1135.484863	4198.335938	1652.028076	16.864784
335.890350	1126.382813	4266.601563	1647.477051	16.594202
336.259979	1174.168701	4355.346680	1722.569214	17.238913
336.629547	1135.484863	4382.652832	1683.885376	16.888578
336.999084	1144.586914	4273.428223	1638.375000	15.781819
337.368622	1165.066650	4419.061523	1638.375000	14.545455
337.738098	1096.801025	4421.336914	1683.885376	17.659138
338.107513	1112.729614	4328.040527	1699.814087	18.259026
338.476898	1165.066650	4355.346680	1642.926025	14.978602
338.846252	1087.698975	4371.275391	1715.742676	19.126818
339.215576	1080.872437	4507.806641	1601.966675	15.205844
339.584869	1124.107300	4243.846191	1606.517700	15.463166
339.954132	1137.760376	4485.051270	1652.028076	15.363699
340.323334	1035.361938	4312.111816	1656.579102	18.958332
340.692505	1126.382813	4237.019531	1645.201538	16.678860
341.061646	1130.933838	4082.284424	1615.619751	16.422512
341.430786	1130.933838	4300.734375	1661.130127	16.726488
341.799896	1146.862427	4382.652832	1656.579102	15.752462
342.168915	1108.178589	4437.265625	1706.640625	17.976763
342.537903	1158.240112	4523.735352	1674.783325	15.348208
342.906830	1062.668213	4566.970215	1718.018188	18.701298
343.275757	1108.178589	4687.572754	1731.671387	17.418949
343.644684	1176.444214	4758.113770	1777.181763	16.772556
344.013550	1155.964600	4849.134766	1622.446289	12.630929
344.382355	1140.035889	4749.011719	1736.222412	16.519548
344.751129	1117.280762	5090.339844	1824.967651	17.812141
345.119873	1142.311401	5306.514648	1845.447388	16.885246
345.488586	1126.382813	5304.238770	1756.702026	15.087146
345.857269	1169.617676	5497.658203	1779.457275	14.090432
346.225891	1126.382813	5720.659180	1729.395752	13.125308
346.594482	1178.719727	5527.240234	1900.059814	16.588173
346.963043	976.198425	5600.056641	1822.692139	18.307085
347.331543	1074.045776	5397.535156	1768.079712	16.052635
347.700043	1115.005249	5254.177734	1793.110352	16.382626
348.068512	1135.484863	5133.574707	1729.395752	14.854866
348.436951	1080.872437	5067.584961	1777.181763	17.465754
348.805328	1105.903076	4824.104004	1665.681274	15.055082
349.173645	1153.689087	4846.859375	1740.773438	15.896487
349.541931	1169.617676	4924.227051	1656.579102	12.969696
349.910217	1096.801025	4937.880371	1695.262939	15.580566
350.278473	1085.423462	5147.228027	1683.885376	14.733891
350.646667	1092.250000	5026.625488	1692.987427	15.268940
351.014801	1128.658325	5249.626465	1756.702026	15.240197
351.382935	1144.586914	5279.208496	1697.538574	13.373694
351.751007	1087.698975	5204.116211	1706.640625	15.035932
352.119049	1140.035889	5267.830566	1722.569214	14.112458
352.487091	1112.729614	5315.616699	1749.875488	15.159719
352.855072	1069.494751	5440.770020	1777.181763	16.189486
353.222992	1149.138062	5192.738281	1752.151001	14.912774
353.590881	1201.474976	5565.923828	1706.640625	11.574558
353.958740	1126.382813	5556.821777	1836.345337	16.024654
354.326599	1158.240112	5759.343262	1706.640625	11.918892
354.694397	1121.831787	5825.333008	1772.630737	13.836479
355.062134	1140.035889	6059.711914	1868.202637	14.801112
355.429840	1133.209351	6241.753418	1756.702026	12.204900
355.797516	1103.627563	6294.090332	1818.141113	13.765893
356.165192	1167.342163	6118.875488	1856.824951	13.924632
356.532776	1160.515625	6512.540527	1875.029175	13.350341
356.900360	1135.484863	6608.112305	1854.549438	13.139294
357.267883	1101.352051	6705.959961	1879.580200	13.885506
357.635376	1124.107300	7195.196777	1884.131226	12.518741
358.002808	1144.586914	7529.698242	1991.080688	13.257306
358.370270	1128.658325	7525.147461	1906.886475	12.166489
358.737640	1117.280762	7591.137207	1931.917114	12.583479
359.105011	1115.005249	7613.892578	1963.774414	13.060223
359.472321	1137.760376	7504.667480	1981.978638	13.259472
359.839569	1165.066650	7406.820313	1963.774414	12.796207
360.206787	1099.076538	7174.717285	1834.069824	12.097380
360.574005	1121.831787	7306.697266	2045.693237	14.937455
360.941193	1108.178589	8005.282227	2072.999512	13.988784
361.308319	1180.995239	8314.752930	2100.305664	12.886763
361.675415	1071.770264	8747.101563	2218.632813	14.942190
362.042450	1201.474976	9238.614258	2225.459229	12.740656
362.409424	1135.484863	9655.035156	2316.480225	13.862179
362.776428	1099.076538	10223.915039	2257.316650	12.693267
363.143402	1049.015137	9670.963867	2241.387939	13.829504
363.510284	1144.586914	8986.031250	2166.295898	13.029602
363.877136	1096.801025	8194.150391	2020.662476	13.016993
364.243988	1146.862427	7582.035156	1961.498901	12.659123
364.610779	1103.627563	7247.533691	1922.815063	13.333333
364.977539	1146.862427	7361.309570	1836.345337	11.094839
365.344269	1137.760376	6928.960938	1893.233276	13.045186
365.710938	1140.035889	6940.338379	1854.549438	12.318556
366.077576	1153.689087	6803.807129	1852.273926	12.364075
366.444183	1089.974487	6742.368164	1870.478149	13.808374
366.810760	1142.311401	6580.806152	1909.161987	14.100420
367.177277	1103.627563	6665.000488	1856.824951	13.543371
367.543823	1062.668213	6787.878418	1829.518677	13.394277
367.910248	1094.525513	6567.152832	1840.896362	13.638254
368.276642	1146.862427	6617.214355	1843.171875	12.728786
368.643036	1180.995239	6564.877441	1809.039063	11.665259
369.009399	1128.658325	6485.234375	1763.528564	11.852165
369.375671	1121.831787	6321.396973	1774.906250	12.560174
369.741974	1153.689087	6398.764648	1795.385864	12.234271
370.108215	1064.943726	6514.815918	1804.488037	13.569939
370.474396	1105.903076	6341.876465	1758.977539	12.472837
370.840546	1135.484863	6419.244141	1824.967651	13.049095
371.206665	1115.005249	6437.448242	1856.824951	13.937579
371.572784	1155.964600	6621.765625	1813.590088	12.031640
371.938843	1105.903076	6726.439453	1852.273926	13.279353
372.304840	1076.321289	6767.398926	1779.457275	12.355059
372.670807	1165.066650	6776.500977	1720.293701	9.894566
373.036713	1231.056763	6899.378906	1863.651489	11.160175
373.402649	1110.454102	6678.653320	1834.069824	12.995507
373.768524	1083.147949	6771.949707	1847.722900	13.440000
374.134308	1135.484863	6851.593262	1786.283813	11.385350
374.500122	1144.586914	6865.246094	1774.906250	11.018299
374.865875	1060.392700	6944.889648	1802.212524	12.606342
375.231567	1158.240112	6799.256348	1781.732788	11.052843
375.597260	1128.658325	7097.349609	1872.753662	12.466641
375.962891	1087.698975	7308.972656	1890.957764	12.911485
376.328461	1201.474976	7242.982910	1890.957764	11.412429
376.694031	1092.250000	7393.166992	1925.090576	13.217768
377.059540	1092.250000	7786.832031	1849.998413	11.318830
377.425049	1087.698975	8210.079102	1904.610962	11.469649
377.790497	1115.005249	8298.824219	1972.876587	11.941717
378.155945	1101.352051	8606.019531	1993.356201	11.885992
378.521301	1099.076538	8460.386719	1968.325439	11.808345
378.886597	1076.321289	8371.640625	1979.703125	12.383034
379.251892	1117.280762	8016.659668	1911.437500	11.510554
379.617157	1078.596802	7784.556641	1888.682251	12.080082
379.982422	1110.454102	7682.158203	1804.488037	10.560944
380.347595	1051.290649	7456.881836	1877.304688	12.895204
380.712738	1119.556274	7370.412109	1779.457275	10.556971
381.077820	1128.658325	7481.912598	1863.651489	11.568767
381.442902	1130.933838	7402.269043	1822.692139	11.030479
381.807953	1153.689087	7545.626953	1854.549438	10.964755
382.172974	1112.729614	7363.585449	1838.620850	11.612669
382.537933	1069.494751	7356.758789	1768.079712	11.111112
382.902832	1176.444214	7493.290039	1836.345337	10.446688
383.267700	1142.311401	7616.167969	1811.314575	10.333920
383.632538	1105.903076	7620.719238	1918.264038	12.469438
383.997345	1153.689087	7739.046387	1806.763550	9.917069
384.362152	1026.259888	8103.129395	1909.161987	12.475884
384.726898	1089.974487	8080.374512	1836.345337	10.677084
385.091553	1133.209351	8212.354492	1877.304688	10.511090
385.456238	1108.178589	8175.946289	1824.967651	10.141662
385.820862	1133.209351	8094.027344	1854.549438	10.362864
386.185425	1117.280762	8212.354492	1856.824951	10.423347
386.549988	1092.250000	8296.548828	1884.131226	10.991788
386.914490	1155.964600	8580.989258	1884.131226	9.806926
387.278961	1199.199463	8560.508789	1722.569214	7.109737
387.643372	1210.577026	8635.601563	1922.815063	9.592400
388.007782	1115.005249	8535.478516	1840.896362	9.782275
388.372101	1146.862427	8592.366211	1879.580200	9.841077
388.736450	1119.556274	8646.979492	1861.375977	9.854896
389.100739	1151.413574	8631.050781	1815.865601	8.883479
389.464966	1137.760376	8426.253906	1795.385864	9.022790
389.829163	1135.484863	8369.365234	1847.722900	9.845864
390.193329	1053.566162	8526.375977	1836.345337	10.475032
390.557495	1105.903076	8478.590820	1854.549438	10.154321
390.921570	1146.862427	8590.090820	1984.254150	11.250383
391.285614	1085.423462	8883.632813	1904.610962	10.504815
391.649597	1055.841675	9202.206055	1906.886475	10.446928
392.013550	1064.943726	9568.565430	1981.978638	10.784051
392.377502	1058.117188	9871.208984	2018.386963	10.895947
392.741455	1176.444214	9925.821289	1981.978638	9.206763
393.105316	1080.872437	9859.832031	1902.335449	9.357180
393.469086	1151.413574	9618.625977	1890.957764	8.734210
393.832886	1062.668213	9641.381836	1884.131226	9.575597
394.196655	1130.933838	9586.769531	1888.682251	8.961247
394.560333	1124.107300	9773.362305	1977.427612	9.865825
394.924042	1160.515625	9937.199219	1984.254150	9.385533
395.287659	1142.311401	9975.882813	1968.325439	9.350850
395.651245	1128.658325	9814.321289	1954.672363	9.510086
396.014771	1146.862427	9434.309570	1952.396851	9.719934
396.378296	1105.903076	9108.910156	1865.927002	9.496730
396.741791	1099.076538	9036.092773	1806.763550	8.916286
397.105255	1130.933838	8890.459961	1790.834839	8.504398
397.468628	1137.760376	8617.397461	1824.967651	9.187709
397.832001	1089.974487	8653.805664	1838.620850	9.897714
398.195313	1064.943726	8692.489258	1795.385864	9.576372
398.558624	1042.188477	8854.051758	1756.702026	9.146519
398.921844	1137.760376	8774.408203	1834.069824	9.117998
399.285095	1135.484863	8672.009766	1870.478149	9.752417
399.648254	1160.515625	8926.868164	1849.998413	8.877820
400.011383	1037.637451	8958.725586	1790.834839	9.508762
400.374451	1158.240112	8801.714844	1765.804199	7.948794
400.737549	1135.484863	8815.367188	1786.283813	8.474074
401.100586	1158.240112	8617.397461	1727.120239	7.626601
401.463562	1121.831787	8844.949219	1727.120239	7.837359
401.826508	1117.280762	8988.307617	1820.416626	8.933216
402.189392	1121.831787	8797.163086	1793.110352	8.745923
402.552246	1158.240112	8883.632813	1840.896362	8.836525
402.915070	1089.974487	8963.276367	1884.131226	10.086705
403.277893	1112.729614	9231.788086	1925.090576	10.005606
403.640656	1103.627563	9359.216797	1836.345337	8.875415
404.003326	1167.342163	9682.340820	1945.570313	9.139498
404.366028	1174.168701	9789.290039	1895.508789	8.372953
404.728699	1117.280762	10121.516602	1861.375977	8.263835
405.091248	1149.138062	10430.987305	1954.672363	8.678596
405.453857	1119.556274	10622.130859	1988.805176	9.147510
405.816345	1105.903076	10394.579102	1879.580200	8.329251
406.178833	1121.831787	10248.945313	1938.743774	8.950387
406.541260	1115.005249	10394.579102	1868.202637	8.116724
406.903687	1171.893188	10085.108398	1925.090576	8.450345
407.266052	1203.750488	9932.648438	1895.508789	7.924921
407.628387	1174.168701	9880.311523	1763.528564	6.769472
407.990662	1153.689087	9684.616211	1813.590088	7.735396
408.352905	1126.382813	9896.240234	1738.497925	6.979761
408.715118	1117.280762	9914.444336	1929.641602	9.234349
409.077332	1130.933838	9529.880859	1799.937012	7.965322
409.439484	1167.342163	9816.596680	1904.610962	8.524073
409.801575	1146.862427	9764.259766	1811.314575	7.710589
410.163605	1167.342163	9809.770508	1811.314575	7.451290
410.525635	1169.617676	10219.364258	1849.998413	7.518230
410.887604	1160.515625	10114.690430	1836.345337	7.547649
411.249573	1169.617676	10349.068359	1872.753662	7.659891
411.611481	1046.739624	10235.292969	1868.202637	8.940068
411.973328	1169.617676	10267.149414	1868.202637	7.678841
412.335144	1126.382813	10201.160156	1918.264038	8.726178
412.696930	1115.005249	10219.364258	1941.019287	9.072731
413.058685	1096.801025	10103.312500	1884.131226	8.741789
413.420410	1185.546387	10155.649414	1856.824951	7.483510
413.782104	1103.627563	9934.923828	1870.478149	8.683331
414.143707	1101.352051	10221.639648	1861.375977	8.333333
414.505310	1199.199463	10246.669922	1859.100464	7.293762
414.866852	1158.240112	10201.160156	1865.927002	7.825867
415.228394	1112.729614	10567.518555	1818.141113	7.460891
415.589874	1071.770264	10681.294922	1834.069824	7.932750
415.951324	1151.413574	10544.763672	1854.549438	7.485465
416.312683	1196.923950	11029.449219	1945.570313	7.613978
416.674072	1169.617676	11241.073242	1875.029175	7.004067
417.035370	1162.791138	11332.093750	1959.223389	7.831729
417.396667	1089.974487	11839.535156	1993.356201	8.403894
417.757935	1062.668213	11850.912109	1993.356201	8.626872
418.119141	1108.178589	12192.240234	2052.519775	8.519812
418.480286	1135.484863	12686.028320	1954.672363	7.092199
418.841400	1158.240112	13109.275391	2164.020264	8.415841
419.202484	1144.586914	13525.695313	2152.642578	8.141886
419.563568	1049.015137	14215.178711	2173.122314	8.537848
419.924591	1133.209351	14847.773438	2136.714111	7.317073
420.285553	1089.974487	14786.333984	2168.571289	7.875062
420.646484	1124.107300	16060.625977	2330.133301	8.074345
421.007355	1076.321289	16636.332031	2352.888428	8.204153
421.368225	1171.893188	17164.253906	2398.398926	7.669323
421.729065	1151.413574	17617.082031	2359.715088	7.338308
422.089874	1092.250000	18195.064453	2346.062012	7.331028
422.450592	1099.076538	18108.593750	2441.633789	7.892977
422.811279	1074.045776	18092.666016	2446.184814	8.062574
423.171936	1151.413574	17962.960938	2437.082764	7.647537
423.532593	1103.627563	17792.296875	2300.551514	7.172075
423.893127	1101.352051	17967.511719	2387.021240	7.622774
424.253723	1203.750488	18302.013672	2473.491211	7.426138
424.614197	1151.413574	18393.035156	2414.327637	7.324799
424.974670	1110.454102	18729.812500	2427.980713	7.477721
425.335052	1108.178589	19203.119141	2532.654541	7.872233
425.695496	1144.586914	18263.330078	2493.970703	7.882494
426.055817	1162.791138	18358.902344	2453.011475	7.502977
426.416168	1140.035889	18479.503906	2484.868652	7.755905
426.776398	1130.933838	17225.693359	2448.460449	8.186060
427.136627	1076.321289	16615.853516	2396.123291	8.493190
427.496826	1212.852539	16404.228516	2220.908203	6.635710
427.856995	1124.107300	15714.747070	2302.827148	8.078603
428.217102	1074.045776	15057.121094	2179.948975	7.908870
428.577179	1067.219238	15182.274414	2232.285889	8.254071
428.937195	1108.178589	14877.355469	2198.153076	7.916047
429.297180	1185.546387	14313.025391	2093.479248	6.916277
429.657135	1165.066650	14167.392578	2104.856689	7.227861
430.017059	1130.933838	14408.597656	2159.469238	7.746358
430.376984	1124.107300	14117.331055	2141.265137	7.828372
430.736786	1108.178589	13805.584961	2011.560425	7.114696
431.096588	1151.413574	13566.655273	2095.754639	7.606304
431.456360	1133.209351	13876.125977	2086.652588	7.482143
431.816071	1130.933838	13266.286133	2047.968750	7.556723
432.175781	1124.107300	13630.369141	2052.519775	7.423581
432.535400	1108.178589	13589.410156	2093.479248	7.894258
432.895020	1110.454102	13659.951172	2143.540527	8.232094
433.254578	1096.801025	13659.951172	2145.816162	8.349936
433.614105	1055.841675	14055.891602	2209.530762	8.874497
433.973602	1094.525513	14492.791992	2186.775391	8.152173
434.333038	1119.556274	14215.178711	2296.000488	8.983493
434.692444	1115.005249	14588.364258	2255.041016	8.461407
435.051819	1062.668213	14688.486328	2200.428711	8.350034
435.411133	1110.454102	14825.017578	2216.357178	8.063713
435.770416	1096.801025	13978.524414	2161.744873	8.267091
436.129669	1099.076538	14740.824219	2138.989502	7.623018
436.488861	1062.668213	14283.444336	2025.213501	7.280550
436.848083	1180.995239	14151.463867	2170.846924	7.631580
437.207184	1199.199463	14219.729492	2168.571289	7.444949
437.566254	1135.484863	14490.516602	2243.663574	8.297837
437.925293	1110.454102	14465.485352	2266.418701	8.655649
438.284363	1146.862427	14474.587891	2177.673340	7.734335
438.643311	1121.831787	14895.559570	2166.295898	7.583017
439.002258	1140.035889	14784.058594	2161.744873	7.488327
439.361145	1260.638550	15532.705078	2284.622803	7.174744
439.719971	1124.107300	16067.452148	2257.316650	7.583372
440.078827	1105.903076	16160.749023	2316.480225	8.041113
440.437592	1128.658325	16809.271484	2366.541748	7.894356
440.796295	1049.015137	16959.457031	2396.123291	8.466818
441.155029	1103.627563	17767.265625	2507.624023	8.425509
441.513672	1110.454102	18297.462891	2600.920166	8.672050
441.872253	1187.821899	18154.105469	2484.868652	7.644849
442.230865	1076.321289	17605.705078	2409.776611	8.067182
442.589386	1085.423462	17739.960938	2473.491211	8.334472
442.947876	1121.831787	17587.500000	2491.695313	8.319514
443.306335	1160.515625	17435.041016	2373.368164	7.452460
443.664764	1158.240112	16292.728516	2334.684326	7.773267
444.023102	1105.903076	16809.271484	2384.745850	8.143748
444.381500	1071.770264	16688.669922	2375.643799	8.349119
444.739777	1115.005249	16829.751953	2366.541748	7.964089
445.098022	1112.729614	17027.722656	2468.940186	8.521590
445.456238	1074.045776	16816.099609	2330.133301	7.979185
445.814423	1092.250000	17423.662109	2421.154053	8.137104
446.172577	1124.107300	18329.320313	2512.175049	8.067717
446.530701	1117.280762	18502.259766	2619.124512	8.638743
446.888733	1146.862427	18923.230469	2559.960938	7.949310
447.246765	1071.770264	19824.337891	2635.052979	8.336366
447.604736	1135.484863	19398.814453	2653.257324	8.310492
447.962677	1069.494751	19378.335938	2698.767578	8.898830
448.320587	1103.627563	19612.712891	2664.634766	8.433735
448.678436	1171.893188	19376.060547	2566.787354	7.662499
449.036255	1101.352051	19171.263672	2575.889648	8.160181
449.394043	1080.872437	18165.482422	2571.338623	8.724029
449.751770	1121.831787	18577.351563	2553.134277	8.199713
450.109467	1130.933838	18195.064453	2519.001465	8.134418
450.467163	1121.831787	17692.173828	2473.491211	8.157101
450.824768	1137.760376	17526.060547	2475.766602	8.164399
451.182343	1140.035889	17180.181641	2491.695313	8.426728
451.539886	1087.698975	16511.179688	2377.919189	8.365298
451.897369	1074.045776	16818.375000	2407.500977	8.469432
452.254822	1108.178589	16527.107422	2398.398926	8.367769
452.612274	1115.005249	17064.130859	2468.940186	8.489085
452.969635	1119.556274	16850.232422	2421.154053	8.274265
453.326965	1121.831787	16579.445313	2380.194824	8.140733
453.684326	1110.454102	16574.892578	2414.327637	8.431432
454.041534	1042.188477	16290.453125	2393.847900	8.864349
454.398773	1144.586914	15771.634766	2302.827148	7.918483
454.755951	1112.729614	15605.521484	2361.990479	8.619877
455.113098	1096.801025	15077.600586	2314.204590	8.707682
455.470215	1094.525513	15207.305664	2245.938965	8.158658
455.827240	1121.831787	15088.978516	2264.143311	8.178560
456.184265	1099.076538	15048.019531	2159.469238	7.601957
456.541260	1160.515625	14916.039063	2366.541748	8.767577
456.898193	1099.076538	15207.305664	2327.857666	8.709677
457.255096	1115.005249	15352.938477	2270.969727	8.118906
457.611969	1146.862427	15141.315430	2286.898438	8.146342
457.968781	1115.005249	15109.458008	2364.266113	8.926828
458.325531	1149.138062	15318.805664	2478.042236	9.378513
458.682312	1137.760376	16374.647461	2359.715088	8.019713
459.039001	1128.658325	16679.568359	2352.888428	7.872402
459.395630	1176.444214	17664.867188	2498.521729	8.018216
459.752289	1128.658325	18577.351563	2594.093750	8.398540
460.108856	1115.005249	20338.605469	2835.298828	8.948863
460.465363	1190.097412	20923.414063	2773.859863	8.025830
460.821899	1112.729614	21157.792969	2853.503174	8.684301
461.178345	1124.107300	20495.615234	2835.298828	8.833549
461.534760	1069.494751	20183.869141	2819.370361	9.154762
461.891144	1074.045776	19822.062500	2735.176025	8.860298
462.247467	1130.933838	18272.431641	2648.706299	8.854375
462.603760	1108.178589	18226.921875	2571.338623	8.547123
462.960052	1076.321289	17271.203125	2471.215576	8.613180
463.316254	1042.188477	16859.333984	2493.970703	9.178535
463.672424	1128.658325	16349.617188	2464.388916	8.775600
464.028564	1112.729614	16115.238281	2405.225586	8.615199
464.384644	1121.831787	16010.564453	2425.705078	8.757450
464.740723	1087.698975	15917.267578	2409.776611	8.915146
465.096741	1078.596802	16167.575195	2443.909424	9.048409
465.452698	1160.515625	15687.440430	2402.949951	8.552631
465.808655	1080.872437	15869.482422	2316.480225	8.355131
466.164520	1176.444214	15928.645508	2421.154053	8.437451
466.520355	1149.138062	16392.851563	2525.828125	9.031199
466.876190	1080.872437	16515.730469	2430.256104	8.742443
467.231964	1124.107300	16388.300781	2441.633789	8.631485
467.587677	1210.577026	17095.988281	2559.960938	8.494485
467.943390	1153.689087	17398.632813	2446.184814	7.956295
468.299011	1165.066650	16822.925781	2437.082764	8.123818
468.654633	1060.392700	16722.802734	2500.797363	9.196571
469.010223	1121.831787	16768.312500	2443.909424	8.449680
469.365723	1135.484863	16190.330078	2387.021240	8.313180
469.721191	1169.617676	16538.484375	2462.113525	8.409832
470.076660	1110.454102	15651.032227	2368.817139	8.654147
470.432068	1092.250000	16035.594727	2450.735840	9.090909
470.787445	1130.933838	15753.430664	2357.439453	8.387798
471.142792	1135.484863	15707.919922	2364.266113	8.432230
471.498016	1130.933838	16269.973633	2489.419678	8.973394
471.853271	1153.689087	16044.697266	2368.817139	8.160147
472.208496	1064.943726	15944.574219	2441.633789	9.252179
472.563660	1137.760376	16101.584961	2427.980713	8.622263
472.918762	1130.933838	16356.443359	2491.695313	8.937379
473.273865	1155.964600	16870.710938	2541.756836	8.818419
473.628876	1108.178589	17596.601563	2512.175049	8.515043
473.983917	1128.658325	17155.150391	2487.144287	8.476502
474.338837	1144.586914	17239.345703	2509.899414	8.482964
474.693787	1160.515625	17255.273438	2578.165039	8.808144
475.048645	1062.668213	17146.048828	2516.726074	9.040748
475.403503	1146.862427	17264.376953	2487.144287	8.315685
475.758270	1069.494751	17598.876953	2641.879639	9.512666
476.113037	1117.280762	17073.232422	2455.286865	8.385624
476.467773	1155.964600	17755.888672	2541.756836	8.348185
476.822418	1187.821899	18370.279297	2653.257324	8.528672
477.177063	1162.791138	18236.023438	2507.624023	7.876850
477.531647	1085.423462	18741.189453	2671.461426	8.983116
477.886200	1117.280762	19159.884766	2650.981689	8.500442
478.240723	1053.566162	19487.560547	2735.176025	9.122331
478.595184	1221.954712	19899.429688	2757.931152	8.223683
478.949585	1105.903076	20202.074219	2830.747803	9.032411
479.303986	1144.586914	20570.708984	2767.033203	8.351880
479.658325	1067.219238	20618.494141	2835.298828	9.043296
480.012634	1039.912964	20866.525391	2748.829102	8.619305
480.366913	1124.107300	21510.498047	2965.003662	9.030025
480.721130	1117.280762	21774.458984	2894.462402	8.603216
481.075317	1185.546387	22186.328125	3044.646729	8.852530
481.429474	1174.168701	23121.566406	2990.034424	8.273717
481.783569	1169.617676	23977.162109	3133.392090	8.610196
482.137604	1108.178589	25519.964844	3110.636963	8.202834
482.491669	1030.810913	27715.843750	3397.352539	8.868423
482.845612	1158.240112	30471.500000	3554.363525	8.174197
483.199554	1099.076538	34078.199219	3854.732178	8.355759
483.553436	1228.781250	39191.292969	4437.265625	8.451717
483.907318	1076.321289	46238.582031	5195.014160	9.119766
484.261139	1124.107300	52971.847656	5636.464844	8.703094
484.614899	1174.168701	56059.730469	5943.660156	8.689883
484.968628	1185.546387	56178.058594	5993.721680	8.743327
485.322357	1128.658325	54141.464844	5909.527344	9.018329
485.675964	1133.209351	50912.503906	5481.729492	8.735600
486.029572	1083.147949	47458.261719	5235.973145	8.954857
486.383148	1137.760376	44158.757813	4899.196289	8.743257
486.736694	1190.097412	42135.820313	4667.093262	8.491719
487.090149	1153.689087	41844.550781	4605.654297	8.483392
487.443604	1121.831787	42311.035156	4687.572754	8.656980
487.796997	1180.995239	43730.957031	4921.951660	8.791915
488.150360	1060.392700	45353.406250	4869.614746	8.600052
488.503693	1115.005249	45690.183594	4994.768066	8.703863
488.856964	1153.689087	45214.597656	4844.583984	8.376801
489.210175	1080.872437	43407.835938	4803.624512	8.795225
489.563416	1101.352051	41471.367188	4500.979980	8.421170
489.916565	1060.392700	39239.082031	4434.990234	8.838957
490.269653	1160.515625	36629.058594	4073.182129	8.211971
490.622772	1099.076538	35306.980469	4004.916504	8.494645
490.975769	1165.066650	35072.601563	4084.559814	8.610161
491.328735	1121.831787	36212.636719	4077.733398	8.423579
491.681732	1069.494751	38310.667969	4296.183105	8.664305
492.034607	1083.147949	39716.941406	4400.857422	8.587584
492.387482	1185.546387	40822.843750	4523.735352	8.421838
492.740326	1119.556274	40385.941406	4428.163574	8.426055
493.093079	1135.484863	38711.160156	4380.377441	8.635620
493.445862	1103.627563	35589.144531	4125.519043	8.762785
493.798523	1176.444214	33186.195313	4000.365479	8.822065
494.151215	1128.658325	30680.847656	3647.659912	8.523908
494.503815	1076.321289	28628.328125	3511.128662	8.837132
494.856384	1151.413574	27258.462891	3313.158203	8.280311
495.208923	1074.045776	25824.884766	3242.617188	8.761607
495.561432	1021.708862	24709.880859	3197.106689	9.183477
495.913879	1162.791138	24639.339844	3051.473389	8.044974
496.266296	1051.290649	24532.390625	3197.106689	9.138481
496.618683	1155.964600	24648.441406	3122.014648	8.368850
496.970978	1180.995239	25073.962891	3156.147461	8.266668
497.323273	1180.995239	24837.308594	3181.177979	8.455175
497.675507	1140.035889	25403.914063	3222.137451	8.581075
498.027710	1092.250000	25426.669922	3185.729004	8.602954
498.379852	1133.209351	25199.117188	3162.973877	8.434191
498.731995	1249.260864	25349.300781	3106.085938	7.704656
499.084076	1233.332275	24147.826172	3172.075928	8.460774
499.436096	1135.484863	24684.849609	3028.718262	8.039424
499.788086	1158.240112	23786.019531	3122.014648	8.678600
500.140106	1228.781250	23654.039063	3106.085938	8.371385
500.491943	1160.515625	22611.849609	2910.391113	8.157420
500.843842	1151.413574	22413.880859	2899.013428	8.219177
501.195679	1133.209351	22154.470703	2901.289063	8.410912
501.547455	1103.627563	21685.712891	2978.656738	9.110005
501.899231	1103.627563	21556.007813	2864.880615	8.611482
502.250885	1064.943726	21298.875000	2837.574463	8.760684
502.602600	1115.005249	20868.800781	2837.574463	8.720194
502.954193	1076.321289	21328.457031	2844.401123	8.730337
503.305786	1064.943726	21307.976563	2819.370361	8.666817
503.657379	1103.627563	21460.437500	2946.799316	9.054325
504.008820	1146.862427	20850.597656	2810.268311	8.442084
504.360291	1135.484863	21296.599609	2949.074951	8.995485
504.711700	1074.045776	21408.099609	2807.992676	8.527306
505.063080	1108.178589	21615.171875	2914.942139	8.810474
505.414368	1128.658325	21521.875000	2762.482178	8.011604
505.765656	1119.556274	21394.447266	2696.492188	7.777778
506.116943	1151.413574	21774.458984	2773.859863	7.867152
506.468109	1171.893188	21282.945313	2760.206787	7.897715
506.819305	1101.352051	21182.822266	2794.339600	8.430595
507.170410	1096.801025	20952.996094	2780.686523	8.480404
507.521484	1174.168701	21203.302734	2807.992676	8.157237
507.872559	1155.964600	21708.468750	2780.686523	7.905226
508.223480	1162.791138	21733.500000	2853.503174	8.219027
508.574493	1183.270874	21692.539063	2810.268311	7.932987
508.925385	1103.627563	22197.705078	2876.258301	8.403452
509.276245	1105.903076	22397.951172	2944.523926	8.635246
509.627045	1128.658325	22477.593750	2942.248291	8.494990
509.977814	1087.698975	22905.392578	2937.697266	8.479349
510.328613	1165.066650	22816.646484	3058.300049	8.744089
510.679260	1119.556274	23030.546875	3019.616211	8.671721
511.029999	1137.760376	23233.068359	2924.044189	8.084449
511.380585	1126.382813	23055.576172	2876.258301	7.979662
511.731140	1153.689087	23608.527344	3001.411865	8.228618
512.081726	1151.413574	23781.468750	2917.217773	7.802916
512.432129	1078.596802	24288.908203	3035.544678	8.431373
512.782654	1076.321289	23997.642578	3017.340576	8.468183
513.133057	1149.138062	24323.041016	3074.228516	8.307148
513.483398	1162.791138	23963.509766	3133.392090	8.642715
513.833801	1149.138062	24245.673828	3005.962891	8.039409
514.183960	1235.607788	23624.457031	3110.636963	8.374835
514.534302	1099.076538	23799.671875	3090.157227	8.771050
514.884460	1105.903076	23524.333984	3069.677490	8.759643
515.234619	1085.423462	23360.496094	3044.646729	8.795587
515.584717	1076.321289	23663.140625	3008.238525	8.553294
515.934753	1110.454102	23610.804688	3078.779541	8.747976
516.284851	1108.178589	23558.466797	3085.606201	8.808027
516.634766	1089.974487	24161.480469	3108.361328	8.748397
516.984741	1069.494751	24311.664063	3085.606201	8.674369
517.334595	1067.219238	24819.105469	3203.933350	8.995976
517.684448	1158.240112	25633.742188	3213.035400	8.395314
518.034363	1039.912964	26398.316406	3244.892578	8.695261
518.384094	1142.311401	27431.402344	3283.576416	8.145071
518.733826	1171.893188	28783.062500	3456.516113	8.274271
519.083496	1085.423462	29151.697266	3583.945313	8.902222
519.433167	1126.382813	30034.599609	3542.985840	8.359571
519.782776	1149.138062	29845.730469	3492.924316	8.167472
520.132324	1105.903076	29472.544922	3531.608398	8.551260
520.481873	1146.862427	28835.400391	3558.914551	8.711375
520.831299	1130.933838	28207.355469	3463.342773	8.614170
521.180786	1094.525513	27611.169922	3358.668701	8.538573
521.530151	1085.423462	26832.941406	3436.036377	9.129474
521.879517	1167.342163	26209.449219	3324.535889	8.614266
522.228882	1087.698975	26798.808594	3338.188965	8.752987
522.578064	1167.342163	26188.968750	3265.372314	8.384868
522.927307	1144.586914	26498.439453	3342.739990	8.669898
523.276489	1055.841675	26211.724609	3465.618164	9.579375
523.625610	1069.494751	26625.869141	3265.372314	8.592288
523.974792	1146.862427	27244.810547	3317.709229	8.318074
524.323792	1119.556274	26987.675781	3401.903564	8.823011
524.672852	1130.933838	27533.800781	3465.618164	8.842541
525.021790	1083.147949	28635.154297	3583.945313	9.076644
525.370728	1092.250000	29734.230469	3615.802490	8.810678
525.719604	1171.893188	31470.453125	3852.456787	8.847164
526.068420	1171.893188	33006.429688	3857.007813	8.434596
526.417297	1165.066650	34314.855469	4057.253662	8.724602
526.765991	1037.637451	35332.011719	4211.988770	9.256186
527.114746	1083.147949	36481.148438	4202.886719	8.813319
527.463379	1146.862427	38099.042969	4248.397461	8.393375
527.812012	1155.964600	40194.800781	4564.694824	8.731639
528.160706	1155.964600	43064.230469	4730.807617	8.530162
528.509155	1180.995239	47123.761719	5258.728516	8.875681
528.857727	1151.413574	52205.000000	5859.465820	9.221786
529.206177	1140.035889	55520.433594	6189.416504	9.285295
529.554565	1076.321289	56421.539063	6162.110352	9.189211
529.902893	1135.484863	55429.410156	6027.854492	9.010897
530.251221	1080.872437	53292.695313	5741.139160	8.925692
530.599548	1112.729614	49820.253906	5556.821777	9.124037
530.947876	1142.311401	46748.300781	5131.299316	8.746632
531.296021	1142.311401	43280.406250	5017.523438	9.196458
531.644165	1194.648438	40602.117188	4626.133789	8.707703
531.992249	1103.627563	38679.300781	4416.785645	8.817296
532.340454	1121.831787	37277.582031	4364.448730	8.968469
532.688354	1149.138062	36927.152344	4282.530273	8.757870
533.036438	1117.280762	38023.953125	4323.489746	8.687343
533.384338	1201.474976	39753.347656	4528.286621	8.629442
533.732239	1053.566162	41334.835938	4603.378418	8.812563
534.080139	1219.679199	42292.828125	4949.257813	9.080333
534.427917	1133.209351	41801.316406	4853.686035	9.148389
534.775757	1128.658325	40153.839844	4726.256836	9.218660
535.123474	1178.719727	38340.250000	4560.143555	9.099258
535.471191	1185.546387	36497.078125	4237.019531	8.641577
535.818848	1194.648438	35627.828125	4189.233887	8.696802
536.166382	1071.770264	34335.332031	4070.906738	9.016282
536.513977	1044.463989	34048.617188	4184.682617	9.514617
536.861511	1162.791138	34137.363281	4043.600586	8.736458
537.208984	1051.290649	34396.773438	4102.764160	9.151085
537.556396	1185.546387	33971.250000	4159.651855	9.071349
537.903809	1105.903076	33286.316406	4118.692871	9.362185
538.251160	1149.138062	32298.742188	4080.008789	9.409014
538.598389	1176.444214	31688.902344	3818.323975	8.658364
538.945740	1085.423462	30273.529297	3786.466553	9.253917
539.292969	1135.484863	29722.853516	3820.599365	9.392660
539.640137	1076.321289	29379.250000	3674.966064	9.181540
539.987244	1133.209351	29527.158203	3718.200928	9.104023
540.334351	1119.556274	30134.722656	3884.313965	9.528665
540.681458	1080.872437	31845.914063	4143.723145	9.955620
541.028442	1185.546387	34210.179688	4189.233887	9.095294
541.375366	1194.648438	37277.582031	4437.265625	8.986567
541.722290	1137.760376	40238.035156	4774.042480	9.299890
542.069153	1124.107300	43157.527344	4901.471680	8.986573
542.416016	1140.035889	42868.535156	5026.625488	9.313993
542.762756	1094.525513	42276.902344	4974.288574	9.420931
543.109558	1126.382813	40920.691406	4812.726563	9.263494
543.456299	1105.903076	39582.683594	4744.460938	9.456503
543.802917	1060.392700	38246.953125	4678.470703	9.729532
544.149536	1078.596802	36767.863281	4416.785645	9.353482
544.496094	1174.168701	34230.660156	4293.907715	9.437598
544.842651	1099.076538	32988.226563	4016.294189	9.147995
545.189148	1044.463989	31199.666016	4059.529053	9.998490
545.535583	1105.903076	29854.832031	3747.782715	9.189488
545.882019	1126.382813	29354.218750	3861.558838	9.689641
546.228333	1124.107300	28368.917969	3702.272461	9.462958
546.574707	1130.933838	28441.734375	3816.048340	9.831695
546.920898	1155.964600	28580.541016	3852.456787	9.832394
547.267212	1142.311401	28548.683594	3777.364502	9.614746
547.613342	1119.556274	28484.968750	3841.079102	9.945120
547.959473	1153.689087	27831.894531	3827.426025	10.022177
548.305664	1103.627563	27099.177734	3786.466553	10.320377
548.651611	1087.698975	26446.103516	3608.976074	9.942570
548.997742	1126.382813	25563.201172	3463.342773	9.563274
549.343689	1235.607788	24090.939453	3472.444824	9.786937
549.689575	1105.903076	23572.119141	3436.036377	10.371721
550.035522	1133.209351	22930.423828	3192.555664	9.447749
550.381287	1074.045776	21835.898438	3274.474365	10.598421
550.727173	1144.586914	21517.324219	3354.117676	10.845527
551.072876	1078.596802	21048.568359	3233.515137	10.790794
551.418640	1144.586914	21046.291016	3142.494141	10.038876
551.764282	1099.076538	20652.626953	3231.239502	10.904224
552.109863	1142.311401	20684.484375	3183.453613	10.444806
552.455505	1121.831787	20916.587891	3219.861816	10.598919
552.801025	1105.903076	20816.464844	3206.208740	10.655737
553.146545	1146.862427	21205.578125	3279.025391	10.629610
553.491943	1169.617676	21451.333984	3379.148438	10.894200
553.837341	1105.903076	21485.466797	3354.117676	11.031711
554.182800	1192.372925	21210.128906	3383.699463	10.946915
554.528015	1108.178589	21025.812500	3247.168213	10.739176
554.873352	1126.382813	20516.095703	3158.422852	10.479990
555.218628	1137.760376	20395.492188	3244.892578	10.941747
555.563721	1117.280762	20147.460938	3219.861816	11.048666
555.908875	1137.760376	19967.695313	3290.403076	11.432023
556.254028	1174.168701	19578.580078	3294.954102	11.523245
556.599121	1071.770264	19239.529297	3269.923340	12.099197
556.944031	1226.505737	19230.425781	3192.555664	10.920121
557.289063	1133.209351	18889.097656	3294.954102	12.174804
557.633972	1135.484863	18900.476563	3322.260254	12.309464
557.978882	1192.372925	18684.300781	3115.187988	10.992585
558.323792	1128.658325	18613.759766	3235.790527	12.051016
558.668518	1089.974487	18247.400391	3185.729004	12.214853
559.013306	1171.893188	18381.656250	3217.586426	11.886818
559.358032	1174.168701	18408.962891	3294.954102	12.305255
559.702637	1135.484863	18286.085938	3135.667725	11.662465
560.047363	1185.546387	18354.351563	3233.515137	11.928430
560.391846	1067.219238	18331.595703	3283.576416	12.837748
560.736450	1103.627563	18085.839844	3360.944336	13.292242
561.080933	1144.586914	18281.533203	3388.250488	13.092552
561.425354	1119.556274	18042.603516	3351.842041	13.190803
561.769775	1155.964600	18431.718750	3354.117676	12.723920
562.114136	1117.280762	18577.351563	3420.107666	13.189104
562.458496	1142.311401	18684.300781	3413.281250	12.945907
562.802673	1174.168701	18695.679688	3417.832275	12.805194
563.146912	1128.658325	18506.810547	3445.138428	13.329841
563.491150	1126.382813	18074.460938	3511.128662	14.070892
563.835266	1089.974487	18276.982422	3531.608398	14.206276
564.179443	1076.321289	18261.054688	3620.353516	14.804024
564.523438	1060.392700	18361.177734	3433.760986	13.718268
564.867493	1064.943726	18324.769531	3545.261475	14.370468
565.211426	1049.015137	18402.136719	3615.802490	14.791503
565.555359	1115.005249	18757.117188	3652.210938	14.381530
565.899231	1133.209351	19014.251953	3768.262451	14.736574
566.243042	1108.178589	19412.468750	3750.058350	14.433118
566.586914	1121.831787	20101.951172	3831.977051	14.278863
566.930603	1151.413574	20329.501953	4086.835449	15.306124
567.274292	1178.719727	20488.789063	4109.590332	15.177938
567.617981	1108.178589	20543.402344	4241.570801	16.122232
567.961609	1112.729614	20354.533203	4159.651855	15.834911
568.305237	1187.821899	19815.234375	4093.661865	15.599804
568.648682	1155.964600	19694.632813	4064.080078	15.686755
568.992188	1092.250000	19665.050781	4159.651855	16.515558
569.335632	1119.556274	19109.824219	4036.773926	16.215532
569.679016	1080.872437	19077.966797	3998.090088	16.209383
570.022461	1064.943726	18861.791016	4125.519043	17.197289
570.365662	1112.729614	19125.751953	4214.264648	17.218294
570.708984	1030.810913	18968.742188	4252.948242	17.962702
571.052185	1089.974487	19105.273438	4161.927734	17.051912
571.395386	1115.005249	19050.660156	4271.152344	17.597055
571.738525	1117.280762	19389.712891	4334.867188	17.608967
572.081604	1180.995239	19935.837891	4489.602539	17.641350
572.424683	1121.831787	20563.880859	4603.378418	17.907303
572.767578	1201.474976	20716.341797	4776.318359	18.318563
573.110596	1176.444214	20566.156250	4714.878906	18.249031
573.453552	1155.964600	20331.779297	4683.021973	18.393259
573.796387	1146.862427	20379.564453	4714.878906	18.551823
574.139282	1192.372925	20088.296875	4689.848145	18.509151
574.481995	1080.872437	20097.400391	4753.562988	19.313150
574.824768	1089.974487	20086.021484	4749.011719	19.262098
575.167480	1112.729614	20004.103516	4719.430176	19.091787
575.510132	1137.760376	19564.927734	4726.256836	19.473946
575.852722	1110.454102	19749.244141	4824.104004	19.924309
576.195251	1167.342163	19558.101563	4783.144531	19.660973
576.537842	1108.178589	19214.498047	4810.451172	20.447405
576.880188	1130.933838	18980.119141	4771.767090	20.397757
577.222717	1183.270874	18534.117188	4692.124023	20.222952
577.565063	1062.668213	18386.208984	4735.358887	21.200577
577.907410	1146.862427	18295.187500	4696.674805	20.700638
578.249756	1144.586914	17689.898438	4612.480469	20.959976
578.591919	1169.617676	17419.111328	4723.980957	21.873686
578.934204	1130.933838	16898.017578	4557.868164	21.734737
579.276306	1089.974487	16588.546875	4398.581543	21.347818
579.618469	1140.035889	16265.422852	4407.683594	21.603729
579.960571	1219.679199	16269.973633	4355.346680	20.834591
580.302551	1215.128052	15685.165039	4375.826660	21.843060
580.644531	1160.515625	15933.196289	4423.612305	22.088724
580.986511	1137.760376	15694.266602	4359.897949	22.135378
581.328369	1096.801025	15407.551758	4257.499512	22.086182
581.670227	1206.026001	15250.540039	4460.020996	23.169155
582.012024	1108.178589	15098.080078	4339.417969	23.096941
582.353821	1126.382813	15077.600586	4437.265625	23.731855
582.695496	1112.729614	14902.385742	4348.520020	23.465345
583.037231	1064.943726	14854.599609	4346.244629	23.795378
583.378845	1080.872437	15027.539063	4373.550781	23.609070
583.720398	1128.658325	14925.140625	4539.664063	24.723736
584.062012	1060.392700	14520.098633	4480.500488	25.409975
584.403442	1044.463989	14622.497070	4389.479492	24.635494
584.744934	1117.280762	14640.701172	4446.367676	24.617197
585.086365	1085.423462	14488.241211	4257.499512	23.667234
585.427734	1135.484863	14845.498047	4325.765137	23.269709
585.768982	1135.484863	14590.639648	4312.111816	23.608997
586.110291	1149.138062	14440.455078	4330.315918	23.934254
586.451599	1167.342163	14160.566406	4289.356934	24.028021
586.792725	1108.178589	14638.425781	4218.815430	22.990244
587.133850	1142.311401	14456.383789	4444.092285	24.799181
587.474915	1105.903076	14392.668945	4366.724609	24.541876
587.815979	1162.791138	14583.812500	4521.459961	25.025434
588.157043	1137.760376	14419.975586	4457.745117	24.995718
588.497925	1124.107300	14558.782227	4460.020996	24.830624
588.838867	1135.484863	14567.883789	4562.419434	25.512455
589.179749	1028.535400	14884.181641	4382.652832	24.207584
589.520569	1174.168701	14668.006836	4471.398438	24.435078
589.861450	1055.841675	15025.263672	4535.112793	24.906336
590.202087	1074.045776	15016.162109	4619.307129	25.428431
590.542847	1110.454102	14879.630859	4562.419434	25.070238
590.883484	1053.566162	15118.560547	4746.736328	26.257887
591.224121	1128.658325	15070.774414	4660.266602	25.330505
591.564636	1140.035889	14982.029297	4628.409180	25.201380
591.905151	1128.658325	14870.528320	4639.787109	25.550591
592.245667	1128.658325	14886.457031	4639.787109	25.521008
592.585999	1142.311401	14731.721680	4617.031738	25.569323
592.926453	1085.423462	14572.435547	4514.633301	25.426018
593.266724	1112.729614	14768.129883	4530.562012	25.029163
593.607056	1135.484863	14495.067383	4491.877930	25.123489
593.947388	1130.933838	14636.149414	4598.827637	25.678181
594.287476	1160.515625	14690.762695	4669.368652	25.933399
594.627686	1142.311401	14820.466797	4653.439941	25.669605
594.967773	1201.474976	15230.060547	4696.674805	24.914841
595.307861	1112.729614	15302.876953	4705.776855	25.320719
595.647888	1128.658325	14977.477539	4628.409180	25.271114
595.987854	1085.423462	15439.408203	4937.880371	26.838938
596.327820	1128.658325	15582.766602	4931.053711	26.306677
596.667725	1101.352051	16076.554688	5012.972168	26.120647
597.007568	1142.311401	16638.607422	5135.850586	25.770927
597.347351	1146.862427	16995.865234	5349.749512	26.518307
597.687073	1069.494751	17357.671875	5267.830566	25.775358
598.026794	1067.219238	17284.855469	5265.555176	25.887470
598.366455	1149.138062	16879.812500	5374.780273	26.862434
598.706116	1121.831787	16597.648438	5099.441895	25.702103
599.045654	1117.280762	16072.003906	5092.615723	26.582472
599.385193	1112.729614	15373.418945	4908.298340	26.615606
599.724731	1137.760376	15220.958984	4742.185547	25.593798
600.064087	1146.862427	14663.456055	4557.868164	25.235691
600.403564	1124.107300	14344.882813	4594.276367	26.247847
600.742920	1126.382813	14297.097656	4487.327148	25.518314
601.082153	1128.658325	13801.033203	4500.979980	26.611601
601.421387	1087.698975	14024.035156	4359.897949	25.294636
601.760620	1151.413574	14096.851563	4457.745117	25.540516
602.099854	1158.240112	14137.810547	4437.265625	25.262974
602.438843	1142.311401	13700.911133	4252.948242	24.768978
602.778015	1115.005249	14008.106445	4521.459961	26.420753
603.117065	1133.209351	14506.445313	4503.255859	25.199932
603.456055	1160.515625	14658.905273	4735.358887	26.483480
603.794983	1055.841675	15182.274414	4749.011719	26.143684
604.133850	1115.005249	15739.777344	4858.236816	25.595142
604.472778	1110.454102	16188.054688	4942.431152	25.415031
604.811584	1105.903076	16713.701172	5117.646484	25.703455
605.150330	1112.729614	17410.009766	5235.973145	25.300196
605.489075	1128.658325	17257.548828	5386.157715	26.396729
605.827698	1128.658325	17321.263672	5270.105957	25.576166
606.166382	1071.770264	17027.722656	5204.116211	25.898458
606.504883	1165.066650	16841.128906	5033.452148	24.677023
606.843445	1135.484863	16194.881836	5053.931641	26.019945
607.181946	1103.627563	15719.297852	4887.818848	25.891331
607.520386	1158.240112	15391.623047	4678.470703	24.732212
607.858826	1108.178589	14891.007813	4617.031738	25.458147
608.197083	1194.648438	14595.190430	4566.970215	25.165562
608.535461	1121.831787	14401.771484	4396.306152	24.657299
608.873718	1074.045776	14174.218750	4721.705566	27.844362
609.211914	1096.801025	14356.260742	4673.919922	26.977863
609.550171	1078.596802	14909.211914	4628.409180	25.666338
609.888245	1119.556274	15207.305664	4698.950684	25.407852
610.226318	1160.515625	15566.837891	4796.797852	25.240877
610.564392	1076.321289	15755.706055	4846.859375	25.685942
610.902344	1051.290649	15500.847656	4780.869141	25.811024
611.240295	1076.321289	15268.744141	4719.430176	25.669394
611.578247	1115.005249	15082.152344	4487.327148	24.144670
611.916138	1069.494751	14825.017578	4548.766113	25.293634
612.253845	1133.209351	14099.126953	4450.918457	25.587921
612.591675	1140.035889	13907.983398	4325.765137	24.950991
612.929382	1067.219238	13787.380859	4246.121582	24.991053
613.267090	1083.147949	13373.235352	4143.723145	24.902794
613.604736	1135.484863	13311.796875	4125.519043	24.556154
613.942261	1099.076538	13307.246094	4066.355713	24.305685
614.279785	1178.719727	13109.275391	4095.937500	24.451651
614.617310	1133.209351	12690.579102	3943.477539	24.315809
614.954712	1149.138062	12440.272461	3982.161377	25.090689
615.292175	1183.270874	12485.782227	3868.385254	23.756792
615.629517	1178.719727	12317.394531	3927.548828	24.678242
615.966797	1124.107300	12260.505859	3740.956299	23.498163
616.304138	1142.311401	12244.577148	3779.640137	23.754869
616.641296	1142.311401	12346.975586	3841.079102	24.086109
616.978516	1171.893188	12112.597656	3879.762939	24.750414
617.315552	1039.912964	12267.333008	3857.007813	25.091204
617.652771	1092.250000	12399.312500	3893.416016	24.773596
617.989685	1080.872437	12340.149414	3843.354736	24.535166
618.326721	1155.964600	12331.046875	3852.456787	24.129507
618.663696	1101.352051	12613.211914	3809.221924	23.522436
619.000549	1128.658325	12415.241211	3891.140625	24.475809
619.337463	1119.556274	12544.946289	3804.670898	23.501297
619.674194	1128.658325	12397.037109	3765.986816	23.404686
620.010986	1121.831787	12101.219727	3829.701416	24.663212
620.347778	1094.525513	11846.361328	3822.875000	25.375662
620.684387	1092.250000	12060.259766	3859.283203	25.228216
621.020996	1199.199463	12071.637695	3636.282227	22.415236
621.357605	1158.240112	11948.759766	3772.813477	24.230282
621.694214	1064.943726	11928.280273	3715.925537	24.403017
622.030579	1144.586914	11896.422852	3659.037354	23.386242
622.367065	1133.209351	11844.085938	3740.956299	24.346718
622.703430	1155.964600	11857.739258	3645.384277	23.261747
623.039795	1110.454102	11646.115234	3702.272461	24.600433
623.376160	1087.698975	11618.809570	3731.854004	25.108036
623.712402	1085.423462	11737.136719	3627.180176	23.862423
624.048645	1121.831787	11664.319336	3547.536865	23.008850
624.384766	1080.872437	11575.574219	3547.536865	23.503902
624.720886	1171.893188	11730.309570	3515.679688	22.198278
625.057007	1117.280762	11432.216797	3599.874023	24.067947
625.392944	1137.760376	11673.421875	3615.802490	23.520517
625.729004	1076.321289	11611.982422	3681.792725	24.730022
626.064941	1101.352051	11980.617188	3659.037354	23.509724
626.400818	1069.494751	12299.189453	3595.322754	22.492403
626.736633	1140.035889	12301.465820	3670.415039	22.670744
627.072449	1128.658325	12635.966797	3752.333740	22.800077
627.408264	1085.423462	12510.813477	3704.547852	22.923721
627.743896	1069.494751	12706.507813	3818.323975	23.621433
628.079590	1083.147949	12642.793945	3816.048340	23.641729
628.415161	1080.872437	12736.089844	3836.528076	23.643108
628.750793	1105.903076	12544.946289	3768.262451	23.274319
629.086365	1115.005249	12246.852539	3743.231689	23.609976
629.421753	1087.698975	12412.965820	3672.690674	22.824997
629.757263	1094.525513	12037.504883	3568.016602	22.603453
630.092651	1101.352051	11951.035156	3513.404053	22.231543
630.427917	1096.801025	11750.789063	3552.087891	23.045706
630.763184	1124.107300	11388.981445	3568.016602	23.808468
631.098511	1215.128052	11350.297852	3390.525879	21.463852
631.433716	1128.658325	11125.021484	3406.454590	22.786251
631.768799	1074.045776	10861.060547	3322.260254	22.971401
632.103943	1117.280762	10904.295898	3438.312012	23.715414
632.438965	1176.444214	10972.561523	3315.433838	21.835077
632.773987	1176.444214	10922.500000	3224.413086	21.013309
633.109070	1206.026001	10735.907227	3367.770752	22.683857
633.443848	1092.250000	10849.683594	3240.341553	22.014923
633.778870	1135.484863	10669.916992	3292.678711	22.625301
634.113708	1149.138062	10619.855469	3231.239502	21.984623
634.448425	1167.342163	10599.375977	3147.045166	20.989141
634.783264	1128.658325	10908.846680	3319.984863	22.405771
635.117859	1146.862427	10724.529297	3133.392090	20.741268
635.452576	1108.178589	10904.295898	3299.505127	22.369339
635.787170	1083.147949	10902.020508	3283.576416	22.410194
636.121704	1069.494751	10405.957031	3242.617188	23.275654
636.456177	1135.484863	10299.006836	3147.045166	21.951826
636.790588	1140.035889	10005.464844	3260.821289	23.921972
637.125122	1089.974487	10314.935547	3149.320801	22.323631
637.459412	1169.617676	10089.659180	3176.626953	22.500000
637.793762	1140.035889	9893.964844	2949.074951	20.665453
638.128052	1089.974487	9818.872070	3044.646729	22.393118
638.462280	1133.209351	9843.903320	3010.513916	21.551722
638.796509	1149.138062	9727.851563	3030.993652	21.936337
639.130615	1112.729614	9554.912109	2958.177002	21.859837
639.464722	1130.933838	9573.116211	2944.523926	21.482479
639.798767	1124.107300	9550.360352	2914.942139	21.253038
640.132751	1174.168701	9322.808594	2935.421875	21.614077
640.466736	1110.454102	9381.972656	2944.523926	22.173315
640.800598	1124.107300	9554.912109	2953.625977	21.700403
641.134521	1176.444214	9115.736328	2807.992676	20.550303
641.468262	1085.423462	9193.104492	2871.707275	22.031994
641.802063	1074.045776	9081.603516	2792.063965	21.454958
642.135803	1149.138062	8908.664063	2833.023438	21.700880
642.469421	1112.729614	9115.736328	2880.809326	22.092693
642.803101	1155.964600	9017.888672	2769.308838	20.520985
643.136658	1162.791138	8863.153320	2848.952148	21.897165
643.470215	1140.035889	8920.041992	2835.298828	21.789995
643.803711	1128.658325	8872.255859	2803.441650	21.627974
644.137085	1128.658325	8958.725586	2746.553711	20.662598
644.470581	1140.035889	8635.601563	2883.084961	23.254404
644.803833	1135.484863	8706.142578	2732.900391	21.100090
645.137207	1121.831787	8915.490234	2696.492188	20.204382
645.470459	1151.413574	8612.846680	2703.318604	20.799021
645.803589	1169.617676	8667.458984	2632.777588	19.514416
646.136780	1174.168701	8731.172852	2735.176025	20.656431
646.469849	1151.413574	8831.295898	2635.052979	19.318518
646.802979	1126.382813	8712.968750	2742.002686	21.295744
647.135986	1126.382813	8619.672852	2689.665527	20.862434
647.468994	1155.964600	8940.521484	2762.482178	20.637239
647.801941	1126.382813	8858.602539	2714.696289	20.541494
648.134766	1108.178589	8967.827148	2728.349365	20.613781
648.467651	1158.240112	8817.643555	2751.104736	20.796198
648.800354	1153.689087	8947.347656	2853.503174	21.810219
649.133179	1180.995239	8778.958984	2728.349365	20.365379
649.465881	1128.658325	8813.091797	2807.992676	21.853716
649.798462	1089.974487	8920.041992	2650.981689	19.936064
650.131104	1119.556274	8833.571289	2707.869873	20.589973
650.463623	1103.627563	8765.305664	2764.757813	21.681023
650.796143	1133.209351	8833.571289	2748.829102	20.981089
651.128662	1089.974487	8765.305664	2587.267090	19.507856
651.461060	1108.178589	8738.000000	2737.451416	21.354010
651.793396	1112.729614	8904.113281	2619.124512	19.334112
652.125732	1105.903076	8744.826172	2680.563477	20.613644
652.458008	1085.423462	8788.061523	2635.052979	20.118166
652.790222	1201.474976	8983.755859	2682.839111	19.035089
653.122437	1119.556274	8633.326172	2587.267090	19.533613
653.454529	1117.280762	8608.294922	2614.573486	19.987850
653.786621	1103.627563	8562.785156	2621.399902	20.347771
654.118713	1117.280762	8626.499023	2580.440674	19.484850
654.450623	1144.586914	8512.723633	2598.644775	19.734404
654.782654	1146.862427	8437.630859	2619.124512	20.193510
655.114502	1115.005249	8508.171875	2600.920166	20.098492
655.446350	1146.862427	8410.325195	2571.338623	19.611530
655.778198	1112.729614	8526.375977	2537.205811	19.214245
656.109863	1130.933838	8285.170898	2564.511963	20.038168
656.441650	1060.392700	8405.773438	2598.644775	20.941761
656.773254	1124.107300	8155.466797	2478.042236	19.255665
657.104919	1133.209351	8212.354492	2396.123291	17.839922
657.436462	1105.903076	8144.088867	2569.062988	20.788879
657.767944	1078.596802	8487.692383	2584.991699	20.331697
658.099548	1078.596802	8626.499023	2455.286865	18.239372
658.430908	1135.484863	8428.529297	2630.501953	20.499218
658.762268	1064.943726	8740.275391	2612.297852	20.160095
659.093628	1137.760376	8701.591797	2616.848877	19.554752
659.424927	1096.801025	9143.042969	2664.634766	19.485291
659.756226	1126.382813	9682.340820	2737.451416	18.829786
660.087341	1112.729614	9721.024414	2798.890625	19.587631
660.418518	1176.444214	9889.413086	2848.952148	19.195616
660.749573	1105.903076	9791.566406	2878.533936	20.408699
661.080627	1165.066650	9641.381836	2757.931152	18.791945
661.411621	1060.392700	9509.401367	2817.094727	20.791813
661.742554	1051.290649	9529.880859	2862.605225	21.363394
662.073547	1160.515625	9179.451172	2644.155273	18.501703
662.404297	1101.352051	9006.511719	2625.950928	19.286123
662.735229	1142.311401	8728.897461	2696.492188	20.485905
663.065979	1067.219238	8612.846680	2628.226563	20.687574
663.396667	1160.515625	8505.896484	2559.960938	19.052046
663.727417	1128.658325	8346.610352	2359.715088	17.055485
664.057922	1151.413574	8134.986816	2459.837891	18.735743
664.388611	1155.964600	8107.680664	2352.888428	17.217674
664.719116	1183.270874	7941.567383	2521.277100	19.797981
665.049622	1146.862427	7805.036133	2377.919189	18.489405
665.380005	1094.525513	7734.495117	2321.031250	18.471556
665.710388	1133.209351	7741.321777	2421.154053	19.490356
666.040771	1153.689087	7780.005859	2462.113525	19.745878
666.371033	1119.556274	7836.893555	2462.113525	19.986450
666.701294	1140.035889	7663.954102	2414.327637	19.532614
667.031555	1115.005249	7707.188965	2455.286865	20.331375
667.361633	1180.995239	7695.811523	2343.786377	17.848410
667.691772	1101.352051	7613.892578	2323.306641	18.763102
668.021790	1160.515625	7704.913574	2439.358398	19.541031
668.351807	1108.178589	7627.545898	2391.572266	19.685863
668.681763	1105.903076	7577.484375	2396.123291	19.936708
669.011719	1083.147949	7725.393066	2343.786377	18.979101
669.341614	1089.974487	7629.821289	2409.776611	20.180933
669.671387	1142.311401	7622.994629	2334.684326	18.398878
670.001221	1060.392700	7766.352539	2398.398926	19.952494
670.330933	1133.209351	7780.005859	2330.133301	18.007532
670.660583	1055.841675	7907.434570	2412.052002	19.794088
670.990173	1119.556274	7711.740234	2350.613037	18.674490
671.319763	1105.903076	7588.861816	2359.715088	19.340120
671.649292	1162.791138	7597.963867	2357.439453	18.564354
671.978821	1146.862427	7295.319824	2293.724854	18.652847
672.308289	1124.107300	7415.922363	2398.398926	20.253164
672.637695	1149.138062	7370.412109	2293.724854	18.397949
672.966980	1185.546387	7261.187012	2177.673340	16.329586
673.296326	1206.026001	7224.778320	2245.938965	17.277882
673.625610	1140.035889	7329.452637	2325.582275	19.154411
673.954773	1155.964600	7347.656738	2293.724854	18.375593
674.283936	1115.005249	7106.451660	2332.408936	20.319029
674.613037	1069.494751	7286.217773	2275.520752	19.399706
674.942078	1162.791138	7186.094727	2252.765625	18.095957
675.271118	1158.240112	7154.237305	2270.969727	18.557875
675.600098	1130.933838	7085.971680	2166.295898	17.386322
675.928955	1096.801025	7161.063965	2268.694336	19.324581
676.257813	1108.178589	6963.093750	2316.480225	20.637390
676.586670	1049.015137	6974.471191	2225.459229	19.854069
676.915466	1126.382813	6965.369141	2198.153076	18.355417
677.244141	1126.382813	6985.848633	2182.224365	18.019417
677.572876	1151.413574	6833.389160	2273.245361	19.743692
677.901489	1121.831787	6676.377930	2150.367188	18.517002
678.230042	1051.290649	6988.124512	2120.785400	18.014565
678.558594	1140.035889	7017.706055	2150.367188	17.189316
678.887085	1210.577026	6967.644531	2250.489990	18.063242
679.215515	1092.250000	6953.991699	2223.183838	19.293478
679.543945	1155.964600	7076.869629	2259.592041	18.639505
679.872253	1142.311401	7288.493164	2248.214600	17.993338
680.200562	1112.729614	7347.656738	2332.408936	19.562046
680.528809	1128.658325	7538.800293	2293.724854	18.175362
680.856995	1137.760376	7511.494141	2286.898438	18.029276
681.185120	1092.250000	7597.963867	2286.898438	18.363064
681.513306	1115.005249	7657.127441	2412.052002	19.826086
681.841309	1069.494751	7757.250488	2259.592041	17.795166
682.169373	1085.423462	7845.995605	2375.643799	19.084484
682.497314	1112.729614	7725.393066	2334.684326	18.479010
682.825134	1124.107300	7434.126465	2321.031250	18.968626
683.153076	1126.382813	7620.719238	2273.245361	17.659426
683.480896	1099.076538	7406.820313	2305.102539	19.119768
683.808655	1051.290649	7409.095703	2393.847900	21.116678
684.136414	1140.035889	7306.697266	2352.888428	19.667896
684.464050	1046.739624	7254.360352	2157.193604	17.888561
684.791626	1112.729614	7097.349609	2289.173828	19.657793
685.119263	1105.903076	6837.939941	2277.796387	20.444622
685.446838	1121.831787	6853.868652	2198.153076	18.777290
685.774292	1196.923950	6553.500000	2243.663574	19.541206
686.101685	1124.107300	6599.010254	2184.500000	19.368246
686.429077	1155.964600	6614.938965	2214.081787	19.383076
686.756348	1124.107300	6539.846680	2116.234375	18.319328
687.083679	1094.525513	6492.061035	2179.948975	20.109612
687.410950	1078.596802	6635.418457	2102.581299	18.427521
687.738159	1190.097412	6655.898438	2145.816162	17.485430
688.065308	1085.423462	6589.908203	2161.744873	19.553535
688.392395	1044.463989	6783.327637	2157.193604	19.389372
688.719421	1042.188477	6676.377930	2045.693237	17.810987
689.046448	1190.097412	6837.939941	2129.887451	16.639805
689.373413	1133.209351	6767.398926	2118.509766	17.487883
689.700317	1149.138062	6639.969727	2170.846924	18.607544
690.027100	1137.760376	6662.725098	2200.428711	19.233938
690.353943	1133.209351	6626.316406	2091.203613	17.439934
690.680725	1183.270874	6403.315430	2009.284912	15.823889
691.007446	1055.841675	6378.284668	2004.733887	17.828133
691.334106	1096.801025	6353.253906	2036.591064	17.878786
691.660645	1162.791138	6146.181641	2054.795166	17.899540
691.987244	1117.280762	6077.916016	2129.887451	20.412844
692.313721	1124.107300	5984.619629	2034.315552	18.726591
692.640259	1144.586914	6109.773438	2025.213501	17.736023
692.966675	1103.627563	6023.303711	1925.090576	16.697502
693.293030	1092.250000	5838.986328	2045.693237	20.086290
693.619324	1130.933838	5989.170898	2029.764526	18.501169
693.945618	1103.627563	5829.884277	2034.315552	19.691862
694.271851	1101.352051	5709.281738	1977.427612	19.012346
694.598083	1171.893188	5757.067871	1934.192627	16.625309
694.924194	1115.005249	5920.905273	2047.968750	19.412878
695.250244	1115.005249	5679.699707	1906.886475	17.347958
695.576294	1121.831787	5752.516602	1909.161987	17.002459
695.902283	1174.168701	5713.832520	1961.498901	17.343359
696.228210	1049.015137	5864.017090	1879.580200	17.249527
696.554138	1144.586914	5784.374023	1922.815063	16.772928
696.879944	1130.933838	5727.485840	1977.427612	18.415844
697.205750	1169.617676	5707.006348	1881.855713	15.697091
697.531433	1183.270874	5889.047852	2009.284912	17.553192
697.857178	1126.382813	5882.221191	1959.223389	17.511961
698.182739	1137.760376	6068.813965	2113.958740	19.796953
698.508423	1126.382813	6360.080566	2009.284912	16.869566
698.833984	1171.893188	6328.223145	2077.550537	17.563992
699.159485	1115.005249	6726.439453	2175.397949	18.896999
699.484924	1149.138062	7045.012207	2250.489990	18.680046
699.810303	1158.240112	7060.940918	2264.143311	18.735546
700.135681	1174.168701	7302.146484	2296.000488	18.306721
700.460999	1135.484863	7447.779785	2307.378174	18.565250
700.786255	1151.413574	7065.492188	2268.694336	18.891882
701.111450	1137.760376	6869.797363	2280.071777	19.928541
701.436646	1101.352051	6735.541504	2227.734863	19.991922
701.761719	1108.178589	6539.846680	2186.775391	19.857561
702.086792	1121.831787	6385.111328	2109.407715	18.763510
702.411865	1094.525513	6084.742676	2072.999512	19.607843
702.736816	1085.423462	5848.088379	2036.591064	19.971331
703.061646	1083.147949	5788.924805	2007.009399	19.632496
703.386536	1112.729614	5743.414551	1938.743774	17.837839
703.711365	1099.076538	5458.974609	1870.478149	17.693111
704.036194	1133.209351	5420.290527	1972.876587	19.585989
704.360901	1094.525513	5324.718750	1931.917114	19.795588
704.685547	1044.463989	5377.055664	1947.845825	20.850842
705.010132	1167.342163	5235.973145	1888.682251	17.729307
705.334717	1119.556274	5179.085449	1979.703125	21.188339
705.659302	1103.627563	5135.850586	1790.834839	17.042889
705.983765	1078.596802	5110.819824	1895.508789	20.259592
706.308228	1171.893188	5076.687012	1859.100464	17.599066
706.632568	1076.321289	5110.819824	1799.937012	17.935703
706.956909	1201.474976	4906.022949	1897.784302	18.796068
707.281189	1119.556274	4946.982422	1843.171875	18.906063
707.605408	1144.586914	5222.320313	1906.886475	18.694199
707.929626	1140.035889	5049.380859	1809.039063	17.112923
708.253784	1140.035889	5038.002930	1861.375977	18.505547
708.577820	1192.372925	5028.900879	1902.335449	18.505341
708.901855	1080.872437	4987.941406	1863.651489	20.034945
709.225830	1162.791138	5035.727539	1845.447388	17.626322
709.549805	1124.107300	5142.677246	1768.079712	16.024916
709.873718	1128.658325	4967.461914	1797.661377	17.427383
710.197510	1128.658325	5090.339844	1927.366089	20.160826
710.521362	1171.893188	5181.360840	1847.722900	16.855846
710.845093	1062.668213	5229.146973	1815.865601	18.077553
711.168701	1142.311401	5217.769043	1829.518677	16.862089
711.492432	1212.852539	5254.177734	1877.304688	16.441442
711.816040	1126.382813	5468.076660	1945.570313	18.867924
712.139587	1105.903076	5468.076660	1952.396851	19.405319
712.463074	1117.280762	5452.147949	1988.805176	20.104986
712.786499	1137.760376	5454.423340	1981.978638	19.557196
713.109924	1137.760376	5311.065430	2027.489014	21.319521
713.433350	1158.240112	5367.953613	1861.375977	16.702702
713.756592	1087.698975	5388.433105	2011.560425	21.481482
714.079834	1062.668213	5290.585938	1900.059814	19.806240
714.403015	1055.841675	5249.626465	1911.437500	20.401520
714.726196	1094.525513	5292.861328	1790.834839	16.585365
715.049255	1083.147949	5190.462891	1829.518677	18.171743
715.372375	1105.903076	5081.237793	1877.304688	19.404696
715.695435	1133.209351	5108.544434	1827.243164	17.458500
716.018311	1092.250000	5076.687012	1834.069824	18.617933
716.341248	1099.076538	5022.074219	1827.243164	18.561485
716.664063	1119.556274	5092.615723	1954.672363	21.019470
716.987000	1146.862427	5158.605469	1829.518677	17.016449
717.309692	1149.138062	5060.758301	1847.722900	17.859221
717.632385	1117.280762	4915.125000	1918.264038	21.090471
717.955078	1108.178589	4944.706543	1740.773438	16.488733
718.277649	1174.168701	4926.502441	1799.937012	16.676777
718.600220	1049.015137	4855.961426	1779.457275	19.187088
718.922791	1115.005249	4787.695801	1843.171875	19.826517
719.245300	1165.066650	4767.216309	1763.528564	16.614021
719.567688	1092.250000	4576.072266	1831.794189	21.227955
719.890015	1087.698975	4630.685059	1802.212524	20.166986
720.212341	1140.035889	4569.245605	1836.345337	20.305244
720.534607	1178.719727	4487.327148	1754.426514	17.400274
720.856873	1117.280762	4439.541016	1870.478149	22.671234
721.179016	1167.342163	4421.336914	1802.212524	19.510492
721.501160	1076.321289	4318.938477	1706.640625	19.438599
721.823242	1135.484863	4273.428223	1768.079712	20.159536
722.145264	1146.862427	4246.121582	1738.497925	19.089577
722.467224	1162.791138	4205.162598	1674.783325	16.828720
722.789185	1149.138062	4241.570801	1731.671387	18.837381
723.111023	1140.035889	4186.958496	1738.497925	19.641523
723.432861	1137.760376	4134.621094	1715.742676	19.286257
723.754578	1151.413574	4243.846191	1683.885376	17.218542
724.076294	1119.556274	4280.254395	1763.528564	20.374369
724.397949	1078.596802	4241.570801	1740.773438	20.935253
724.719666	1174.168701	4095.937500	1679.334351	17.289721
725.041260	1119.556274	4120.968262	1718.018188	19.939344
725.362732	1055.841675	4086.835449	1777.181763	23.798800
725.684265	1130.933838	4227.917480	1747.599976	19.911831
726.005676	1149.138062	4091.386475	1656.579102	17.246710
726.327087	1092.250000	4089.110840	1713.467163	20.728930
726.648438	1069.494751	4102.764160	1738.497925	22.055513
726.969666	1117.280762	4091.386475	1838.620850	24.254017
727.290894	1119.556274	4091.386475	1702.089600	19.601839
727.612061	1194.648438	4111.866211	1720.293701	18.018719
727.933228	1137.760376	4145.999023	1708.916138	18.986383
728.254395	1119.556274	4287.081055	1720.293701	18.965515
728.575378	1124.107300	4280.254395	1708.916138	18.529202
728.896301	1192.372925	4380.377441	1786.283813	18.629551
729.217285	1180.995239	4391.755371	1697.538574	16.087883
729.538147	1146.862427	4355.346680	1695.262939	17.092197
729.858948	1155.964600	4430.438965	1843.171875	20.986797
730.179810	1151.413574	4407.683594	1838.620850	21.104124
730.500549	1153.689087	4225.642090	1838.620850	22.296295
730.821228	1117.280762	4305.285156	1774.906250	20.628124
731.141846	1176.444214	4371.275391	1763.528564	18.376068
731.462402	1137.760376	4425.888184	1718.018188	17.647057
731.782898	1096.801025	4532.837402	1740.773438	18.741722
732.103455	1158.240112	4430.438965	1768.079712	18.636997
732.423889	1105.903076	4412.234863	1754.426514	19.614590
732.744263	1096.801025	4473.673828	1788.559326	20.485174
733.064636	1140.035889	4334.867188	1718.018188	18.091167
733.384888	1128.658325	4403.132813	1720.293701	18.068100
733.705200	1117.280762	4337.142578	1795.385864	21.060068
734.025330	1096.801025	4478.225098	1777.181763	20.121130
734.345520	1167.342163	4396.306152	1736.222412	17.618044
734.665527	1089.974487	4428.163574	1799.937012	21.267895
734.985596	1085.423462	4296.183105	1681.609863	18.568390
735.305542	1133.209351	4205.162598	1756.702026	20.296295
735.625549	1103.627563	4271.152344	1854.549438	23.706898
735.945435	1105.903076	4293.907715	1743.048950	19.985725
736.265259	1190.097412	4123.243652	1743.048950	18.851824
736.585083	1135.484863	4066.355713	1806.763550	22.903728
736.904785	1112.729614	3982.161377	1706.640625	20.697863
737.224426	1112.729614	4061.804688	1711.191650	20.293211
737.544128	1135.484863	4025.396240	1711.191650	19.921261
737.863708	1153.689087	3907.069336	1765.804199	22.231403
738.183289	1121.831787	4023.120850	1620.170776	17.176468
738.502808	1094.525513	4016.294189	1786.283813	23.676012
738.822205	1074.045776	3959.406250	1779.457275	24.447952
739.141541	1142.311401	4029.947266	1706.640625	19.542950
739.460938	1112.729614	4027.671875	1763.528564	22.326305
739.780212	1142.311401	4066.355713	1797.661377	22.412449
740.099426	1128.658325	4277.979004	1738.497925	19.364162
740.418640	1026.259888	4020.845215	1688.436401	22.112459
740.737793	1078.596802	4086.835449	1733.946899	21.785175
741.056885	1130.933838	4123.243652	1820.416626	23.041824
741.375977	1105.903076	4100.488281	1715.742676	20.364744
741.694946	1060.392700	4039.049316	1788.559326	24.446140
742.013855	1140.035889	4080.008789	1706.640625	19.272448
742.332703	1146.862427	3922.997803	1747.599976	21.639347
742.651550	1119.556274	3909.344727	1690.711914	20.473080
742.970398	1162.791138	3913.895752	1763.528564	21.836227
743.289124	1117.280762	3831.977051	1613.344238	18.273258
743.607788	1108.178589	3825.150391	1754.426514	23.785597
743.926453	1119.556274	3802.395264	1645.201538	19.592875
744.245056	1128.658325	3777.364502	1738.497925	23.024057
744.563599	1144.586914	3884.313965	1663.405762	18.936880
744.882141	1108.178589	3715.925537	1654.303589	20.942408
745.200500	1108.178589	3820.599365	1670.232300	20.721478
745.518860	1137.760376	3690.894775	1695.262939	21.836006
745.837219	1110.454102	3747.782715	1704.365112	22.519417
746.155518	1094.525513	3608.976074	1743.048950	25.791853
746.473755	1137.760376	3483.822266	1670.232300	22.696413
746.791992	1110.454102	3643.108887	1686.160889	22.731356
747.110107	1076.321289	3645.384277	1656.579102	22.586359
747.428162	1069.494751	3570.292236	1679.334351	24.385807
747.746216	1183.270874	3517.955078	1670.232300	20.857700
748.064148	1183.270874	3520.230713	1688.436401	21.616354
748.382080	1142.311401	3606.700439	1645.201538	20.406279
748.700073	1178.719727	3581.669678	1663.405762	20.170460
749.017822	1110.454102	3442.863037	1692.987427	24.975609
749.335632	1174.168701	3581.669678	1686.160889	21.266541
749.653320	1137.760376	3595.322754	1749.875488	24.907408
749.971008	1112.729614	3549.812500	1713.467163	24.649860
750.288696	1080.872437	3718.200928	1756.702026	25.625536
750.606262	1042.188477	3620.353516	1745.324463	27.272730
750.923828	1101.352051	3643.108887	1686.160889	23.008057
751.241272	1119.556274	3636.282227	1713.467163	23.598551
751.558716	1094.525513	3529.332764	1695.262939	24.672895
751.876038	1028.535400	3636.282227	1711.191650	26.178011
752.193481	1089.974487	3561.189941	1686.160889	24.125231
752.510681	1108.178589	3399.628174	1670.232300	24.528303
752.827942	1064.943726	3442.863037	1683.885376	26.028706
753.145081	1108.178589	3527.057129	1624.721802	21.354658
753.462219	1074.045776	3497.475586	1611.068726	22.159626
753.779297	1146.862427	3513.404053	1731.671387	24.711544
754.096375	1185.546387	3504.302002	1731.671387	23.552504
754.413330	1158.240112	3542.985840	1736.222412	24.236645
754.730286	1144.586914	3568.016602	1745.324463	24.788734
755.047119	1108.178589	3490.648926	1772.630737	27.889212
755.363892	1165.066650	3508.853027	1624.721802	19.611649
755.680725	1105.903076	3524.781738	1677.058838	23.612419
755.997498	1160.515625	3433.760986	1674.783325	22.622622
756.314148	1167.342163	3479.271240	1672.507813	21.850395
756.630737	1140.035889	3490.648926	1702.089600	23.910942
756.947327	1119.556274	3395.077148	1747.599976	27.599997
757.263855	1117.280762	3385.974854	1681.609863	24.874622
757.580261	1119.556274	3422.383301	1647.477051	22.924898
757.896729	1089.974487	3370.046387	1674.783325	25.648703
758.213074	1133.209351	3515.679688	1754.426514	26.074499
758.529419	1105.903076	3467.893799	1704.365112	25.337189
758.845642	1092.250000	3431.485352	1604.242188	21.887159
759.161865	1108.178589	3481.546875	1743.048950	26.749763
759.478149	1153.689087	3447.414063	1713.467163	24.404758
759.794189	1149.138062	3504.302002	1597.415649	19.033815
760.110229	1142.311401	3488.373291	1731.671387	25.121244
760.426270	1074.045776	3508.853027	1720.293701	26.542059
760.742249	1117.280762	3520.230713	1736.222412	25.757576
761.058105	1108.178589	3554.363525	1733.946899	25.581396
761.374023	1171.893188	3624.904541	1815.865601	26.252323
761.689819	1058.117188	3668.139648	1768.079712	27.201395
762.005554	1165.066650	3565.741211	1720.293701	23.127960
762.321289	1135.484863	3595.322754	1781.732788	26.271973
762.636902	1142.311401	3661.312988	1749.875488	24.119244
762.952515	1117.280762	3472.444824	1827.243164	30.144924
763.268127	1165.066650	3718.200928	1763.528564	23.440283
763.583618	1080.872437	3645.384277	1827.243164	29.103815
763.899048	1124.107300	3941.202148	1881.855713	26.898222
764.214478	1155.964600	4280.254395	1895.508789	23.670794
764.529785	1112.729614	4585.174316	1970.601074	24.705114
764.845093	1108.178589	4869.614746	2013.835938	24.077436
765.160400	1135.484863	4997.043457	2093.479248	24.808491
765.475586	1037.637451	4935.604492	2143.540527	28.371279
765.790771	1094.525513	4794.522461	2034.315552	25.399752
766.105835	1103.627563	4673.919922	2050.244141	26.513699
766.420837	1105.903076	4457.745117	1938.743774	24.847254
766.735840	1160.515625	4259.774902	2013.835938	27.533041
767.050842	1115.005249	4036.773926	1972.876587	29.361372
767.365662	1087.698975	3836.528076	1897.784302	29.470196
767.680542	1112.729614	3911.620361	1836.345337	25.853662
767.995300	1087.698975	3870.660889	1881.855713	28.536385
768.309998	1124.107300	3768.262451	1788.559326	25.129086
768.624817	1137.760376	3656.761963	1811.314575	26.738935
768.939392	1058.117188	3627.180176	1900.059814	32.772362
769.254028	1110.454102	3674.966064	1847.722900	28.748894
769.568481	1130.933838	3465.618164	1747.599976	26.413256
769.882935	1076.321289	3488.373291	1809.039063	30.377361
770.197388	1176.444214	3385.974854	1811.314575	28.733267
770.511841	1176.444214	3417.832275	1731.671387	24.771576
770.826172	1165.066650	3294.954102	1731.671387	26.602568
771.140442	1087.698975	3276.750000	1745.324463	30.041578
771.454651	1117.280762	3372.321777	1761.253052	28.557011
771.768860	1115.005249	3244.892578	1731.671387	28.952995
772.082886	1130.933838	3247.168213	1704.365112	27.096775
772.397034	1115.005249	3192.555664	1731.671387	29.682369
772.711060	1151.413574	3128.841064	1704.365112	27.963177
773.025024	1160.515625	3183.453613	1724.844727	27.896511
773.338928	1151.413574	3192.555664	1704.365112	27.090302
773.652771	1178.719727	3167.524902	1779.457275	30.205952
773.966614	1137.760376	3094.708252	1797.661377	33.720928
774.280457	1117.280762	3137.943115	1763.528564	31.981979
774.594116	1128.658325	3078.779541	1809.039063	34.889153
774.907776	1087.698975	3019.616211	1727.120239	33.097755
775.221375	1074.045776	3094.708252	1727.120239	32.319820
775.534912	1149.138062	2999.136475	1683.885376	28.905285
775.848450	1074.045776	3090.157227	1884.131226	40.180588
776.161926	1119.556274	3067.402100	1779.457275	33.878502
776.475342	1146.862427	2971.830078	1786.283813	35.037411
776.788696	1135.484863	3126.565674	1679.334351	27.314285
777.101990	1169.617676	2930.870850	1727.120239	31.653744
777.415283	1105.903076	2924.044189	1740.773438	34.918652
777.728516	1144.586914	2899.013428	1804.488037	37.613495
778.041626	1151.413574	2937.697266	1711.191650	31.337580
778.354736	1133.209351	2935.421875	1656.579102	29.040401
778.667725	1151.413574	3005.962891	1667.956787	27.852762
778.980774	1155.964600	2935.421875	1665.681274	28.644503
779.293640	1126.382813	2880.809326	1758.977539	36.057068
779.606567	1069.494751	2755.655762	1779.457275	42.105263
779.919434	1160.515625	2844.401123	1699.814087	32.027027
780.232239	1171.893188	2878.533936	1745.324463	33.599998
780.544983	1162.791138	2921.768799	1606.517700	25.226389
780.857666	1201.474976	3008.238525	1745.324463	30.100756
781.170227	1169.617676	2792.063965	1695.262939	32.398315
781.482849	1140.035889	2855.778564	1683.885376	31.697615
781.795410	1117.280762	2819.370361	1670.232300	32.486629
782.107910	1126.382813	2889.911377	1699.814087	32.516132
782.420288	1135.484863	2805.717041	1679.334351	32.561310
782.732666	1108.178589	2776.135498	1647.477051	32.332878
783.044983	1196.923950	2712.420898	1740.773438	35.885883
783.357300	1153.689087	2716.971924	1733.946899	37.117905
783.669495	1144.586914	2767.033203	1743.048950	36.886402
783.981689	1160.515625	2785.237549	1702.089600	33.333332
784.293762	1140.035889	2735.176025	1674.783325	33.523540
784.605835	1126.382813	2732.900391	1681.609863	34.560905
784.917908	1121.831787	2632.777588	1733.946899	40.512051
785.229858	1151.413574	2671.461426	1695.262939	35.778439
785.541748	1092.250000	2696.492188	1626.997314	33.333328
785.853577	1242.434326	2591.818115	1670.232300	31.703209
786.165405	1105.903076	2628.226563	1738.497925	41.554562
786.477173	1137.760376	2707.869873	1679.334351	34.492752
786.788879	1049.015137	2641.879639	1674.783325	39.285713
787.100525	1103.627563	2630.501953	1706.640625	39.493298
787.412109	1035.361938	2621.399902	1692.987427	41.463413
787.723694	1064.943726	2600.920166	1713.467163	42.222225
788.035156	998.953613	2605.471436	1720.293701	44.900845
788.346558	1023.984375	2610.022461	1731.671387	44.619801
788.658081	1092.250000	2632.777588	1711.191650	40.177254
788.969360	1099.076538	2653.257324	1777.181763	43.631039
789.280640	1119.556274	2773.859863	1770.355225	39.339752
789.591919	1176.444214	2769.308838	1788.559326	38.428570
789.903076	1158.240112	2848.952148	1790.834839	37.415878
790.214172	1121.831787	2924.044189	1743.048950	34.469696
790.525269	1117.280762	2798.890625	1884.131226	45.602161
790.836365	1124.107300	2744.278076	1752.151001	38.764042
791.147339	1126.382813	2728.349365	1781.732788	40.909092
791.458191	1112.729614	2737.451416	1642.926025	32.633057
791.769104	1103.627563	2657.808350	1784.008301	43.777451
792.079895	1149.138062	2703.318604	1765.804199	39.677895
792.390686	1124.107300	2569.062988	1784.008301	45.669289
792.701416	1169.617676	2541.756836	1704.365112	38.971809
793.012085	1151.413574	2487.144287	1731.671387	43.441227
793.322693	1099.076538	2591.818115	1743.048950	43.140247
793.633240	1185.546387	2544.032227	1631.548462	32.830822
793.943787	1094.525513	2448.460449	1631.548462	39.663868
794.254272	1101.352051	2607.746826	1729.395752	41.691841
794.564636	1094.525513	2471.215576	1688.436401	43.140495
794.875000	1183.270874	2462.113525	1629.272949	34.875446
795.185303	1080.872437	2484.868652	1697.538574	43.922207
795.495544	1021.708862	2496.246338	1679.334351	44.598763
795.805786	1149.138062	2430.256104	1663.405762	40.142101
796.115906	1165.066650	2475.766602	1636.099487	35.937504
796.426025	1108.178589	2491.695313	1608.793213	36.184212
796.736023	1140.035889	2525.828125	1774.906250	45.812809
797.045959	1110.454102	2562.236328	1747.599976	43.887154
797.355896	1142.311401	2598.644775	1838.620850	47.812504
797.665833	1103.627563	2660.083740	1793.110352	44.298244
797.975708	1183.270874	2562.236328	1761.253052	41.914188
798.285461	1083.147949	2641.879639	1738.497925	42.043797
798.595154	1117.280762	2610.022461	1752.151001	42.530483
798.904846	1128.658325	2423.429688	1838.620850	54.833042
799.214478	1096.801025	2473.491211	1822.692139	52.727268
799.524109	1071.770264	2571.338623	1777.181763	47.040970
799.833557	1121.831787	2587.267090	1720.293701	40.838509
800.143005	1089.974487	2462.113525	1811.314575	52.570480
800.452393	1069.494751	2412.052002	1815.865601	55.593224
800.761780	1162.791138	2384.745850	1731.671387	46.554935
801.071106	1058.117188	2405.225586	1752.151001	51.520264
801.380371	1183.270874	2346.062012	1799.937012	53.033268
801.689575	1078.596802	2368.817139	1681.609863	46.737217
801.998718	1196.923950	2414.327637	1743.048950	44.859810
802.307800	1117.280762	2407.500977	1674.783325	43.209877
802.616882	1087.698975	2437.082764	1711.191650	46.205734
802.925903	1108.178589	2405.225586	1736.222412	48.421055
803.234863	1023.984375	2409.776611	1636.099487	44.170773
803.543701	1112.729614	2336.959961	1720.293701	49.628250
803.852539	1069.494751	2425.705078	1722.569214	48.154366
804.161316	1124.107300	2359.715088	1708.916138	47.329651
804.470032	1089.974487	2380.194824	1681.609863	45.855373
804.778809	1115.005249	2280.071777	1663.405762	47.070316
805.087341	1187.821899	2289.173828	1713.467163	47.727276
805.395935	1096.801025	2257.316650	1752.151001	56.470585
805.704468	1110.454102	2311.929199	1722.569214	50.946968
806.012939	1092.250000	2348.337402	1692.987427	47.826084
806.321350	1105.903076	2311.929199	1724.844727	51.320751
806.629761	1185.546387	2418.878662	1829.518677	52.214016
806.938049	1089.974487	2325.582275	1772.630737	55.248619
807.246277	1160.515625	2368.817139	1754.426514	49.152542
807.554504	1039.912964	2302.827148	1752.151001	56.396393
807.862671	1171.893188	2296.000488	1674.783325	44.736843
808.170715	1194.648438	2357.439453	1665.681274	40.508812
808.478821	1176.444214	2418.878662	1731.671387	44.688648
808.786804	1210.577026	2236.836914	1724.844727	50.110863
809.094727	1128.658325	2286.898438	1740.773438	52.848724
809.402649	1146.862427	2298.276123	1704.365112	48.418972
809.710510	1133.209351	2239.112549	1704.365112	51.646091
810.018311	1253.812012	2230.010498	1754.426514	51.282040
810.326050	1153.689087	2211.806152	1683.885376	50.107525
810.633667	1137.760376	2293.724854	1779.457275	55.511818
810.941345	1087.698975	2193.602051	1763.528564	61.111107
811.248901	1149.138062	2257.316650	1754.426514	54.620117
811.556396	1153.689087	2179.948975	1727.120239	55.875824
811.863892	1103.627563	2216.357178	1774.906250	60.327206
812.171326	1039.912964	2273.245361	1720.293701	55.166046
812.478699	1051.290649	2161.744873	1738.497925	61.885242
812.786011	1089.974487	2152.642578	1708.916138	58.244118
813.093262	1140.035889	2125.336426	1695.262939	56.351036
813.400391	1142.311401	2011.560425	1681.609863	62.041882
813.707642	1064.943726	2164.020264	1713.467163	59.006214
814.014709	1103.627563	2150.367188	1702.089600	57.173916
814.321716	1146.862427	2136.714111	1711.191650	57.011494
814.628723	1137.760376	2239.112549	1670.232300	48.347107
814.935669	1046.739624	2141.265137	1772.630737	66.320168
815.242554	1210.577026	2118.509766	1715.742676	55.639107
815.549438	1108.178589	2225.459229	1774.906250	59.674145
815.856201	1092.250000	2104.856689	1695.262939	59.550560
816.162964	1121.831787	2091.203613	1774.906250	67.370895
816.469604	1128.658325	2207.255127	1718.018188	54.641350
816.776184	1208.301514	2109.407715	1633.823975	47.222233
817.082825	1155.964600	2159.469238	1736.222412	57.823132
817.389343	1130.933838	2182.224365	1679.334351	52.164505
817.695801	1060.392700	2159.469238	1729.395752	60.869560
818.002197	1044.463989	2173.122314	1795.385864	66.532257
818.308533	1169.617676	2186.775391	1754.426514	57.494411
818.614868	1119.556274	2214.081787	1784.008301	60.706856
818.921143	1128.658325	2216.357178	1763.528564	58.368198
819.227356	1135.484863	2195.877686	1784.008301	61.158791
819.533447	1115.005249	2207.255127	1749.875488	58.125000
819.839539	1087.698975	2245.938965	1754.426514	57.563850
820.145569	1126.382813	2291.449463	1863.651489	63.281246
820.451538	1137.760376	2341.510986	1863.651489	60.302452
820.757568	1144.586914	2421.154053	1913.713013	60.249561
821.063416	1140.035889	2566.787354	2029.764526	62.360451
821.369263	1115.005249	2678.288086	2082.101563	61.863171
821.675049	1165.066650	2819.370361	2157.193604	59.972481
821.980713	1169.617676	2842.125488	2141.265137	58.095242
822.286438	1055.841675	3067.402100	2291.449463	61.425339
822.592102	1094.525513	3269.923340	2439.358398	61.820087
822.897583	1058.117188	4002.641113	2994.585449	65.765068
823.203125	1037.637451	6116.600098	4252.948242	63.306442
823.508545	1115.005249	8312.477539	5650.118164	63.009800
823.813965	1099.076538	10292.180664	6831.113281	62.351479
824.119263	1119.556274	10968.010742	7231.604980	62.060997
824.424622	1101.352051	9909.893555	6539.846680	61.741150
824.729858	1119.556274	8426.253906	5675.148926	62.348175
825.035095	1153.689087	7331.728027	4887.818848	60.441994
825.340149	1140.035889	6259.957520	4239.295410	60.533337
825.645264	1099.076538	5433.943848	3936.650879	65.459312
825.950256	1126.382813	5003.870117	3579.394287	63.262913
826.255310	1135.484863	4612.480469	3238.066162	60.471210
826.560242	1080.872437	4148.274414	3046.922363	64.094955
826.865112	1101.352051	3929.824463	2867.156250	62.429607
827.169922	1112.729614	3806.946289	2839.849854	64.104721
827.474670	1162.791138	3690.894775	2830.747803	65.976601
827.779419	1087.698975	3866.109863	2869.431641	64.127762
828.084045	1176.444214	4257.499512	3131.116699	63.441658
828.388672	1130.933838	4771.767090	3611.251465	68.125000
828.693176	1165.066650	5215.493652	3847.905762	66.235954
828.997681	1178.719727	5192.738281	3875.211914	67.176872
829.302124	1146.862427	4774.042480	3533.883789	65.809288
829.606567	1126.382813	4041.324951	3137.943115	69.008583
829.910828	1142.311401	3647.659912	2805.717041	66.394180
830.215149	1124.107300	3463.342773	2666.910400	65.953308
830.519348	1217.403687	3160.698486	2530.379150	67.564400
830.823547	1094.525513	2885.360352	2375.643799	71.537491
831.127686	1087.698975	2844.401123	2311.929199	69.689117
831.431763	1108.178589	2687.390137	2202.704102	69.308350
831.735779	1108.178589	2544.032227	2013.835938	63.074490
832.039734	1115.005249	2509.899414	2070.723877	68.515495
832.343628	1117.280762	2400.674561	1824.967651	55.141834
832.647461	1153.689087	2282.347412	1961.498901	71.572571
832.951233	1196.923950	2350.613037	1956.947876	65.877708
833.255127	1117.280762	2255.041016	1970.601074	75.000008
833.558777	1149.138062	2311.929199	1922.815063	66.536194
833.862366	1203.750488	2291.449463	2013.835938	74.476990
834.165955	1162.791138	2423.429688	2016.111450	67.689529
834.469482	1178.719727	2785.237549	2259.592041	67.280441
834.773010	1160.515625	3112.912354	2466.664551	66.899773
835.076416	1110.454102	3465.618164	2864.880615	74.492752
835.379822	1126.382813	3697.721191	2921.768799	69.823013
835.683105	1180.995239	3620.353516	2951.350586	72.574631
835.986389	1037.637451	3502.026611	2869.431641	74.330559
836.289612	1067.219238	3228.964111	2548.583252	68.526314
836.592773	1105.903076	3042.371338	2350.613037	64.277321
836.895874	1108.178589	2801.166016	2296.000488	70.161293
837.198914	1149.138062	2612.297852	2216.357178	72.939339
837.501892	1085.423462	2528.103516	2082.101563	69.085182
837.804871	1135.484863	2332.408936	1977.427612	70.342201
838.107666	1117.280762	2227.734863	1954.672363	75.409836
838.410583	1067.219238	2259.592041	1861.375977	66.603058
838.713379	1133.209351	2154.918213	1856.824951	70.824051
839.016052	1078.596802	2038.866699	1784.008301	73.459709
839.318787	1126.382813	2032.040039	1743.048950	68.090454
839.621338	1149.138062	1950.121338	1729.395752	72.443169
839.923889	1087.698975	1913.713013	1722.569214	76.859497
840.226440	1085.423462	1938.743774	1695.262939	71.466652
840.528931	1117.280762	1988.805176	1695.262939	66.318527
840.831299	1160.515625	2002.458252	1836.345337	80.270279
841.133606	1180.995239	2082.101563	1836.345337	72.727280
841.435913	1067.219238	2209.530762	1915.988525	74.302788
841.738220	1133.209351	2216.357178	1854.549438	66.596642
842.040405	1067.219238	2259.592041	1918.264038	71.374054
842.342529	1142.311401	2041.142212	1875.029175	81.518990
842.644592	1128.658325	2036.591064	1736.222412	66.917305
842.946594	1133.209351	1909.161987	1724.844727	76.246323
843.248596	1080.872437	1895.508789	1631.548462	67.597771
843.550598	1174.168701	1884.131226	1686.160889	72.115379
843.852478	1153.689087	1829.518677	1706.640625	81.818192
844.154236	1108.178589	1890.957764	1547.354126	56.104652
844.455994	1153.689087	1829.518677	1692.987427	79.797974
844.757690	1165.066650	1754.426514	1606.517700	74.903481
845.059326	1105.903076	1770.355225	1549.629639	66.780815
845.360962	1133.209351	1781.732788	1545.078613	63.508770
845.662476	1190.097412	1608.793213	1583.762451	94.021729
845.963989	1110.454102	1747.599976	1497.292725	60.714294
846.265381	1140.035889	1677.058838	1522.323364	71.186432
846.566772	1137.760376	1642.926025	1590.588989	89.639626
846.868042	1117.280762	1665.681274	1508.670288	71.369286
847.169373	1096.801025	1615.619751	1504.119263	78.508774
847.470581	1126.382813	1581.486938	1570.109375	97.500008
847.771729	1117.280762	1706.640625	1456.333252	57.528942
848.072815	1060.392700	1690.711914	1431.302612	58.844772
848.373901	1117.280762	1640.650513	1431.302612	60.000000
848.674866	1151.413574	1624.721802	1451.782227	63.461533
848.975891	1071.770264	1588.313477	1431.302612	69.603539
849.276794	1062.668213	1586.037964	1481.364014	80.000000
849.577637	1101.352051	1670.232300	1451.782227	61.599991
849.878357	1089.974487	1633.823975	1476.812988	71.129700
850.179077	1014.882263	1586.037964	1435.853638	73.705185
850.479736	1167.342163	1547.354126	1429.027100	68.862289
850.780396	1112.729614	1581.486938	1524.598877	87.864067
851.080994	1135.484863	1601.966675	1451.782227	67.804863
851.381470	1101.352051	1626.997314	1485.915039	73.160172
851.681946	1074.045776	1615.619751	1481.364014	75.210083
851.982361	1096.801025	1636.099487	1549.629639	83.966232
852.282715	1135.484863	1579.211426	1447.231201	70.256409
852.583008	1146.862427	1565.558350	1567.833862	100.543480
852.883240	1112.729614	1622.446289	1451.782227	66.517860
853.183411	1108.178589	1579.211426	1460.884399	74.879242
853.483521	1133.209351	1556.456177	1456.333252	76.344078
853.783630	1101.352051	1642.926025	1501.843750	73.949585
854.083679	1135.484863	1656.579102	1467.710938	63.755470
854.383667	1101.352051	1490.466064	1545.078613	114.035103
854.683533	1178.719727	1531.425537	1451.782227	77.419334
854.983337	1133.209351	1547.354126	1488.190552	85.714279
855.283203	1135.484863	1524.598877	1353.934937	56.140377
855.582886	1080.872437	1570.109375	1465.435425	78.604652
855.882629	1130.933838	1586.037964	1447.231201	69.500000
856.182312	1121.831787	1454.057739	1413.098389	87.671234
856.481873	1121.831787	1531.425537	1465.435425	83.888885
856.781372	1089.974487	1615.619751	1490.466064	76.190468
857.080872	1153.689087	1556.456177	1397.169800	60.451988
857.380310	1162.791138	1497.292725	1449.506714	85.714264
857.679688	1074.045776	1535.976563	1476.812988	87.192116
857.979004	1137.760376	1579.211426	1429.027100	65.979393
858.278259	1096.801025	1531.425537	1406.271851	71.204178
858.577454	1171.893188	1524.598877	1438.129150	75.483887
858.876648	1128.658325	1490.466064	1442.680176	86.792465
859.175720	1103.627563	1504.119263	1479.088501	93.749992
859.474792	1019.433350	1547.354126	1481.364014	87.500000
859.773743	1058.117188	1638.375000	1401.720825	59.215683
860.072693	1158.240112	1592.864502	1435.853638	63.874355
860.371521	1251.536499	1535.976563	1442.680176	67.199982
860.670349	1187.821899	1529.150024	1413.098389	65.999977
860.969116	1137.760376	1485.915039	1429.027100	83.660156
861.267883	1183.270874	1520.047852	1429.027100	72.972992
861.566589	1071.770264	1497.292725	1413.098389	80.213890
861.865112	1076.321289	1522.323364	1394.894287	71.428589
862.163635	1126.382813	1545.078613	1417.649414	69.565208
862.462158	1137.760376	1504.119263	1481.364014	93.788811
862.760620	1135.484863	1542.803101	1501.843750	89.944138
863.059021	1053.566162	1558.731689	1433.578125	75.225235
863.357361	1153.689087	1533.701050	1533.701050	100.000000
863.655640	1180.995239	1474.537476	1490.466064	105.426338
863.953857	1108.178589	1561.007324	1483.639526	82.914558
864.251953	1196.923950	1558.731689	1465.435425	74.213860
864.550110	1144.586914	1551.905151	1508.670288	89.385483
864.848206	1058.117188	1608.793213	1417.649414	65.289246
865.146179	1146.862427	1538.252075	1413.098389	68.023254
865.444092	1064.943726	1551.905151	1531.425537	95.794411
865.741943	1092.250000	1472.261963	1458.608887	96.407196
866.039795	1112.729614	1460.884399	1431.302612	91.503265
866.337646	1153.689087	1522.323364	1479.088501	88.271614
866.635376	1035.361938	1438.129150	1403.996338	91.525421
866.933044	1199.199463	1508.670288	1454.057739	82.352928
867.230652	1035.361938	1533.701050	1499.568237	93.150688
867.528198	1151.413574	1488.190552	1381.241089	68.243240
867.825745	1165.066650	1547.354126	1365.312500	52.380959
868.123230	1076.321289	1551.905151	1449.506714	78.468903
868.420593	1183.270874	1551.905151	1476.812988	79.629631
868.717896	1212.852539	1504.119263	1406.271851	66.406250
869.015198	1142.311401	1454.057739	1451.782227	99.270073
869.312439	1135.484863	1483.639526	1492.741699	102.614403
869.609619	1119.556274	1454.057739	1383.516602	78.911560
869.906738	1087.698975	1474.537476	1479.088501	101.176468
870.203796	1069.494751	1545.078613	1406.271851	70.813400
870.500854	1142.311401	1574.660400	1472.261963	76.315788
870.797791	1112.729614	1524.598877	1513.221313	97.237579
871.094666	1103.627563	1604.242188	1417.649414	62.727264
871.391602	1069.494751	1563.282837	1542.803101	95.852524
871.688293	1110.454102	1542.803101	1417.649414	71.052628
871.985107	1062.668213	1554.180664	1522.323364	93.518517
872.281738	1053.566162	1520.047852	1495.017212	94.634163
872.578369	1121.831787	1549.629639	1463.159912	79.787247
872.874939	1119.556274	1556.456177	1422.200562	69.270851
873.171509	1094.525513	1467.710938	1385.792114	78.048759
873.467957	1049.015137	1426.751587	1394.894287	91.566261
873.764343	1171.893188	1490.466064	1497.292725	102.142891
874.060669	1069.494751	1488.190552	1438.129150	88.043488
874.356995	1085.423462	1595.140137	1440.404663	69.642845
874.653198	1078.596802	1510.945801	1497.292725	96.842117
874.949463	1124.107300	1472.261963	1440.404663	90.849670
875.245544	1133.209351	1579.211426	1481.364014	78.061218
875.541626	1174.168701	1529.150024	1374.414551	56.410248
875.837646	1158.240112	1574.660400	1488.190552	79.234955
876.133606	1178.719727	1522.323364	1567.833862	113.245056
876.429565	1142.311401	1490.466064	1479.088501	96.732040
876.725403	1176.444214	1554.180664	1440.404663	69.879532
877.021179	1105.903076	1558.731689	1547.354126	97.487450
877.316956	1128.658325	1465.435425	1535.976563	120.945946
877.612610	1119.556274	1574.660400	1490.466064	81.499985
877.908203	1115.005249	1499.568237	1567.833862	117.751480
878.203857	1074.045776	1524.598877	1563.282837	108.585884
878.499390	1078.596802	1517.772339	1476.812988	90.673584
878.794800	1121.831787	1481.364014	1479.088501	99.367088
879.090271	1094.525513	1495.017212	1570.109375	118.749992
879.385559	1149.138062	1567.833862	1531.425537	91.304352
879.680847	1130.933838	1611.068726	1490.466064	74.881508
879.976196	1124.107300	1570.109375	1551.905151	95.918358
880.271301	1140.035889	1642.926025	1590.588989	89.592751
880.566467	1208.301514	1615.619751	1624.721802	102.234627
880.861572	1126.382813	1702.089600	1727.120239	104.347809
881.156555	1119.556274	1822.692139	1729.395752	86.731384
881.451477	1069.494751	1906.886475	1863.651489	94.836945
881.746460	1112.729614	2282.347412	2214.081787	94.163422
882.041321	1039.912964	2848.952148	2571.338623	84.654091
882.336121	1110.454102	3599.874023	3504.302002	96.160873
882.630798	1053.566162	4205.162598	4155.101074	98.411552
882.925537	1078.596802	4642.062500	4587.449707	98.467422
883.220215	1130.933838	4867.338867	4489.602539	89.890381
883.514771	1055.841675	4448.643066	4143.723145	91.012741
883.809326	1112.729614	4105.039551	3968.508301	95.437263
884.103760	1169.617676	3834.252441	3563.465576	89.837746
884.398132	1165.066650	3590.771729	3292.678711	87.711075
884.692505	1176.444214	3363.219727	3174.351563	91.363174
884.986816	1110.454102	3101.534912	2899.013428	89.828568
885.281067	1153.689087	2978.656738	2742.002686	87.032425
885.575256	1160.515625	2755.655762	2566.787354	88.159760
885.869385	1196.923950	2480.317627	2478.042236	99.822708
886.163452	1092.250000	2346.062012	2277.796387	94.555351
886.457458	1162.791138	2150.367188	2109.407715	95.852524
886.751465	1194.648438	2098.030273	1961.498901	84.886635
887.045410	1112.729614	2066.172852	1959.223389	88.782822
887.339233	1162.791138	1915.988525	1893.233276	96.978844
887.632996	1112.729614	1793.110352	1765.804199	95.986633
887.926758	1153.689087	1838.620850	1697.538574	79.401993
888.220398	1187.821899	1774.906250	1720.293701	90.697662
888.514099	1121.831787	1686.160889	1720.293701	106.048386
888.807678	1037.637451	1611.068726	1586.037964	95.634918
889.101196	1135.484863	1649.752563	1620.170776	94.247787
889.394653	1158.240112	1597.415649	1547.354126	88.601021
889.688049	1067.219238	1476.812988	1458.608887	95.555573
889.981384	1105.903076	1611.068726	1588.313477	95.495491
890.274719	1099.076538	1538.252075	1492.741699	89.637314
890.567932	1140.035889	1604.242188	1417.649414	59.803913
>>>>>End Processed Spectral Data<<<<<
