Jaz Data File
++++++++++++++++++++++++++++++++++++
Date: Sun Sep 29 07:27:56 2024
User: jaz
Dark Spectrum Present: Yes
Reference Spectrum Present: Yes
Processed Spectrum Present: Yes
Spectrometers: JAZA3692
Integration Time (usec): 40000 (JAZA3692)
Spectra Averaged: 1 (JAZA3692)
Boxcar Smoothing: 0 (JAZA3692)
Correct for Electrical Dark: No (JAZA3692)
Strobe/Lamp Enabled: Yes (JAZA3692)
Correct for Detector Non-linearity: No (JAZA3692)
Correct for Stray Light: No (JAZA3692)
Number of Pixels in Processed Spectrum: 2048
>>>>>Begin Processed Spectral Data<<<<<
W	D	R	S	P
190.244385	0.000000	0.000000	0.000000	0.000000
190.627136	0.000000	0.000000	0.000000	0.000000
191.009842	1105.903076	1067.219238	1060.392700	117.647003
191.392532	1112.729614	1064.943726	1099.076538	28.571356
191.775177	1137.760376	1119.556274	1105.903076	175.000671
192.157791	1144.586914	1085.423462	1149.138062	-7.692498
192.540390	1196.923950	1151.413574	1162.791138	75.000069
192.922943	1178.719727	1074.045776	1240.158813	-58.695679
193.305481	1183.270874	1162.791138	1130.933838	255.555222
193.687958	1105.903076	1190.097412	1112.729614	8.108073
194.070419	1112.729614	1087.698975	1124.107300	-45.455032
194.452866	1221.954712	1178.719727	1121.831787	231.578491
194.835251	1187.821899	1249.260864	1121.831787	-107.407593
195.217621	1199.199463	1210.577026	1115.005249	-740.002136
195.599960	1142.311401	1135.484863	1176.444214	-500.001801
195.982254	1078.596802	1137.760376	1124.107300	76.923172
196.364517	1124.107300	1146.862427	1146.862427	100.000000
196.746750	1167.342163	1128.658325	1105.903076	158.823654
197.128952	1178.719727	1169.617676	1155.964600	250.000000
197.511139	1167.342163	1233.332275	1165.066650	-3.448263
197.893280	1165.066650	1092.250000	1192.372925	-37.500042
198.275391	1087.698975	1187.821899	1128.658325	40.909061
198.657471	1119.556274	1206.026001	1110.454102	-10.526427
199.039520	1130.933838	1256.087524	1192.372925	49.090912
199.421539	1171.893188	1215.128052	1096.801025	-173.684280
199.803513	1185.546387	1110.454102	1146.862427	51.515224
200.185471	1099.076538	1144.586914	1176.444214	170.000076
200.567383	1208.301514	1162.791138	1162.791138	100.000000
200.949265	1167.342163	1221.954712	1158.240112	-16.666592
201.331131	1124.107300	1137.760376	1155.964600	233.334229
201.712967	1140.035889	1101.352051	1151.413574	-29.411987
202.094742	1133.209351	1180.995239	1153.689087	42.857288
202.476517	1083.147949	1199.199463	1128.658325	39.215668
202.858231	1128.658325	1153.689087	1135.484863	27.272594
203.239944	1103.627563	1155.964600	1192.372925	169.565125
203.621582	1121.831787	1130.933838	1137.760376	175.000000
204.003235	1137.760376	1112.729614	1165.066650	-109.090866
204.384827	1144.586914	1185.546387	1140.035889	-11.111045
204.766388	1108.178589	1215.128052	1096.801025	-10.638262
205.147934	1078.596802	1153.689087	1142.311401	84.848396
205.529449	1146.862427	1133.209351	1099.076538	350.000885
205.910904	1119.556274	1206.026001	1149.138062	34.210571
206.292343	1115.005249	1092.250000	1130.933838	-69.999626
206.673767	1140.035889	1158.240112	1162.791138	124.999832
207.055115	1233.332275	1094.525513	1151.413574	59.016361
207.436462	1076.321289	1174.168701	1169.617676	95.348854
207.817780	1151.413574	1096.801025	1151.413574	-0.000000
208.199051	1126.382813	1187.821899	1153.689087	44.444466
208.580307	1044.463989	1108.178589	1074.045776	46.428585
208.961517	1092.250000	1126.382813	1144.586914	153.333145
209.342712	1069.494751	1121.831787	1103.627563	65.217323
209.723846	1092.250000	1149.138062	1105.903076	23.999897
210.104965	1187.821899	1140.035889	1178.719727	19.047777
210.486069	1128.658325	1190.097412	1155.964600	44.444466
210.867111	1078.596802	1128.658325	1026.259888	-104.545189
211.248123	1176.444214	1130.933838	1151.413574	54.999851
211.629120	1130.933838	1169.617676	1124.107300	-17.647003
212.010071	1089.974487	1142.311401	1196.923950	204.348053
212.390991	1126.382813	1128.658325	1185.546387	2600.010742
212.771881	1187.821899	1128.658325	1108.178589	134.615448
213.152756	1160.515625	1171.893188	1096.801025	-560.002136
213.533569	1115.005249	1146.862427	1085.423462	-92.857529
213.914368	1124.107300	1196.923950	1178.719727	74.999916
214.295135	1199.199463	1201.474976	1135.484863	-2800.010742
214.675858	1140.035889	1112.729614	1128.658325	41.666481
215.056549	1130.933838	1101.352051	1124.107300	23.076828
215.437225	1153.689087	1130.933838	1110.454102	190.000061
215.817841	1155.964600	1196.923950	1108.178589	-116.666916
216.198441	1115.005249	1176.444214	1078.596802	-59.259541
216.579025	1140.035889	1160.515625	1055.841675	-411.109863
216.959549	1128.658325	1233.332275	1096.801025	-30.434793
217.340057	1067.219238	1144.586914	1085.423462	23.529495
217.720535	1165.066650	1160.515625	1074.045776	2000.008057
218.100967	1153.689087	1160.515625	1140.035889	-200.001785
218.481369	1151.413574	1128.658325	1133.209351	80.000107
218.861740	1119.556274	1117.280762	1174.168701	-2400.005371
219.242065	1119.556274	1146.862427	1187.821899	250.000900
219.622391	1153.689087	1115.005249	1105.903076	123.529655
220.002670	1083.147949	1142.311401	1126.382813	73.076981
220.382919	1146.862427	1130.933838	1162.791138	-100.000763
220.763123	1128.658325	1162.791138	1144.586914	46.666500
221.143295	1128.658325	1190.097412	1124.107300	-7.407378
221.523453	1169.617676	1180.995239	1142.311401	-240.001068
221.903549	1121.831787	1194.648438	1128.658325	9.374969
222.283630	1142.311401	1212.852539	1133.209351	-12.903181
222.663696	1160.515625	1126.382813	1115.005249	133.333221
223.043701	1115.005249	1196.923950	1108.178589	-8.333458
223.423676	1058.117188	1142.311401	1171.893188	135.135178
223.803635	1140.035889	1149.138062	1071.770264	-749.992615
224.183548	1080.872437	1192.372925	1021.708862	-53.061268
224.563431	1033.086426	1192.372925	1080.872437	30.000038
224.943283	1115.005249	1174.168701	1171.893188	96.153854
225.323105	1110.454102	1144.586914	1153.689087	126.666931
225.702881	1133.209351	1199.199463	1117.280762	-24.137842
226.082642	1085.423462	1149.138062	1119.556274	53.571415
226.462357	1146.862427	1244.709839	1183.270874	37.209412
226.842041	1087.698975	1165.066650	1151.413574	82.352997
227.221695	1124.107300	1178.719727	1130.933838	12.499972
227.601318	1137.760376	1171.893188	1165.066650	80.000069
227.980911	1135.484863	1171.893188	1092.250000	-118.749939
228.360474	1058.117188	1206.026001	1162.791138	70.769241
228.739990	1171.893188	1290.220337	1144.586914	-23.076931
229.119476	1105.903076	1231.056763	1146.862427	32.727242
229.498932	1074.045776	1237.883301	1167.342163	56.944454
229.878372	1124.107300	1324.353149	1153.689087	14.772735
230.257736	1167.342163	1454.057739	1199.199463	11.111115
230.637115	1126.382813	1383.516602	1180.995239	21.238914
231.016449	1067.219238	1367.588013	1206.026001	46.212116
231.395737	1155.964600	1381.241089	1142.311401	-6.060640
231.774994	1144.586914	1306.148926	1126.382813	-11.267563
232.154221	1128.658325	1253.812012	1196.923950	54.545437
232.533417	1087.698975	1292.495850	1201.474976	55.555534
232.912582	1071.770264	1292.495850	1228.781250	71.134018
233.291702	1117.280762	1278.842651	1194.648438	47.887329
233.670792	1149.138062	1272.016113	1199.199463	40.740719
234.049866	1151.413574	1328.904175	1146.862427	-2.564162
234.428894	1117.280762	1310.699951	1112.729614	-2.352997
234.807892	1155.964600	1315.250977	1221.954712	41.428596
235.186874	1178.719727	1256.087524	1062.668213	-149.999756
235.565781	1128.658325	1269.740601	1174.168701	32.258038
235.944687	1087.698975	1328.904175	1221.954712	55.660381
236.323547	1133.209351	1317.526489	1162.791138	16.049397
236.702377	1110.454102	1272.016113	1162.791138	32.394394
237.081177	1115.005249	1278.842651	1196.923950	50.000000
237.459946	1130.933838	1297.046875	1160.515625	17.808228
237.838669	1167.342163	1340.281738	1165.066650	-1.315785
238.217361	1130.933838	1353.934937	1169.617676	17.346928
238.596039	1110.454102	1381.241089	1176.444214	24.369751
238.974670	1087.698975	1326.628662	1153.689087	27.619051
239.353271	1030.810913	1406.271851	1146.862427	30.909079
239.731842	1115.005249	1381.241089	1178.719727	23.931593
240.110367	1146.862427	1401.720825	1194.648438	18.750025
240.488876	1140.035889	1322.077637	1208.301514	37.499985
240.867340	1089.974487	1399.445313	1092.250000	0.735291
241.245789	1151.413574	1392.618774	1169.617676	7.547143
241.624176	1124.107300	1460.884399	1162.791138	11.486481
242.002548	1130.933838	1526.874512	1201.474976	17.816088
242.380890	1169.617676	1479.088501	1192.372925	7.352954
242.759186	1128.658325	1633.823975	1160.515625	6.306308
243.137451	1144.586914	1692.987427	1231.056763	15.767646
243.515686	1146.862427	1802.212524	1299.322388	23.263895
243.893890	1142.311401	1745.324463	1276.567139	22.264151
244.272049	1055.841675	1875.029175	1240.158813	22.499994
244.650192	1140.035889	1761.253052	1221.954712	13.186826
245.028290	1135.484863	1672.507813	1237.883301	19.067795
245.406357	1135.484863	1663.405762	1149.138062	2.586221
245.784393	1144.586914	1617.895264	1244.709839	21.153847
246.162384	1149.138062	1617.895264	1219.679199	15.048545
246.540359	1140.035889	1647.477051	1130.933838	-1.793715
246.918289	1128.658325	1704.365112	1308.424438	31.225290
247.296204	1146.862427	1843.171875	1294.771362	21.241840
247.674057	1201.474976	2100.305664	1417.649414	24.050629
248.051895	1162.791138	2296.000488	1353.934937	16.867474
248.429703	1146.862427	2355.164063	1460.884399	25.988707
248.807465	1155.964600	2434.807373	1413.098389	20.106756
249.185196	1124.107300	2189.051025	1347.108276	20.940165
249.562897	1096.801025	2091.203613	1335.730713	24.027460
249.940567	1110.454102	1945.570313	1376.690063	31.880110
250.318192	1155.964600	1904.610962	1290.220337	17.933132
250.695801	1167.342163	1831.794189	1285.669312	17.808231
251.073349	1174.168701	1733.946899	1269.740601	17.073174
251.450882	1135.484863	1736.222412	1217.403687	13.636374
251.828400	1133.209351	1779.457275	1242.434326	16.901405
252.205872	1115.005249	1758.977539	1310.699951	30.388683
252.583313	1130.933838	1752.151001	1287.944824	25.274734
252.960693	1112.729614	1813.590088	1287.944824	25.000013
253.338074	1071.770264	1909.161987	1235.607788	19.565220
253.715408	1142.311401	1906.886475	1253.812012	14.583344
254.092682	1099.076538	1868.202637	1235.607788	17.751478
254.469955	1087.698975	1749.875488	1287.944824	30.240555
254.847198	1121.831787	1683.885376	1235.607788	20.242910
255.224365	1149.138062	1677.058838	1242.434326	17.672400
255.601563	1115.005249	1738.497925	1237.883301	19.708019
255.978683	1089.974487	1747.599976	1246.985352	23.875423
256.355743	1115.005249	1720.293701	1253.812012	22.932333
256.732819	1171.893188	1720.293701	1260.638550	16.182581
257.109894	1133.209351	1631.548462	1185.546387	10.502294
257.486877	1183.270874	1708.916138	1285.669312	19.480522
257.863831	1142.311401	1731.671387	1251.536499	18.532833
258.240753	1135.484863	1870.478149	1237.883301	13.931888
258.617645	1162.791138	1818.141113	1344.832764	27.777773
258.994507	1060.392700	1970.601074	1221.954712	17.750002
259.371307	1078.596802	2016.111450	1262.914063	19.660200
259.748108	1096.801025	2182.224365	1319.802124	20.545080
260.124878	1121.831787	2361.990479	1349.383789	18.348619
260.501617	1094.525513	2630.501953	1367.588013	17.777779
260.878296	1103.627563	2949.074951	1410.822876	16.646116
261.254944	1115.005249	3015.064941	1438.129150	17.005987
261.631561	1099.076538	3010.513916	1515.496826	21.785715
262.008179	1119.556274	2755.655762	1358.485962	14.603616
262.384735	1096.801025	2416.603027	1374.414551	21.034483
262.761261	1135.484863	2086.652588	1374.414551	25.119617
263.137695	1060.392700	2170.846924	1367.588013	27.663933
263.514191	1108.178589	2093.479248	1353.934937	24.942270
263.890594	1110.454102	2152.642578	1328.904175	20.960707
264.267029	1108.178589	2002.458252	1303.873413	21.882956
264.643341	1067.219238	2016.111450	1317.526489	26.378891
265.019653	1094.525513	2116.234375	1310.699951	21.158125
265.395935	1108.178589	2066.172852	1180.995239	7.600948
265.772217	1144.586914	1966.049927	1294.771362	18.282558
266.148407	1128.658325	1993.356201	1319.802124	22.105270
266.524597	1137.760376	2070.723877	1331.179688	20.731712
266.900726	1119.556274	2027.489014	1240.158813	13.283202
267.276855	1151.413574	2243.663574	1344.832764	17.708326
267.652924	1085.423462	2209.530762	1315.250977	20.445335
268.028992	1105.903076	2327.857666	1358.485962	20.670399
268.404999	1183.270874	2305.102539	1319.802124	12.170386
268.781006	1137.760376	2389.296875	1342.557251	16.363636
269.156921	1062.668213	2296.000488	1378.965576	25.645754
269.532837	1171.893188	2346.062012	1417.649414	20.930229
269.908661	1165.066650	2296.000488	1338.006226	15.291750
270.284546	1112.729614	2250.489990	1372.139038	22.800005
270.660339	1076.321289	2248.214600	1331.179688	21.747578
271.036133	1185.546387	2282.347412	1410.822876	20.539413
271.411835	1101.352051	2473.491211	1419.924927	23.217243
271.787537	1137.760376	2493.970703	1363.036987	16.610743
272.163239	1151.413574	2703.318604	1479.088501	21.114367
272.538849	1105.903076	2873.982666	1506.394775	22.651226
272.914459	1119.556274	2960.452637	1529.150024	22.249691
273.290070	1165.066650	2855.778564	1429.027100	15.612385
273.665588	1080.872437	2673.737061	1497.292725	26.142855
274.041046	1135.484863	2707.869873	1342.557251	13.169318
274.416565	1180.995239	2664.634766	1328.904175	9.969331
274.791962	1117.280762	2637.328613	1433.578125	20.808382
275.167389	1055.841675	2553.134277	1440.404663	25.683889
275.542755	1121.831787	2450.735840	1319.802124	14.897264
275.918060	1033.086426	2455.286865	1333.455200	21.120003
276.293365	1117.280762	2514.450439	1397.169800	20.032574
276.668640	1124.107300	2523.552490	1442.680176	22.764227
277.043854	1060.392700	2614.573486	1426.751587	23.572475
277.419037	1083.147949	2546.307861	1483.639526	27.371689
277.794189	1119.556274	2557.685303	1429.027100	21.518990
278.169312	1126.382813	2548.583252	1483.639526	25.119997
278.544373	1117.280762	2607.746826	1497.292725	25.496183
278.919464	1135.484863	2580.440674	1458.608887	22.362207
279.294464	1103.627563	2559.960938	1451.782227	23.906248
279.669464	1171.893188	2573.614014	1406.271851	16.720781
280.044403	1165.066650	2630.501953	1454.057739	19.720495
280.419312	1206.026001	2650.981689	1467.710938	18.110239
280.794189	1140.035889	2594.093750	1501.843750	24.882631
281.169037	1121.831787	2728.349365	1476.812988	22.096315
281.543854	1192.372925	2710.145264	1526.874512	22.038982
281.918671	1144.586914	2769.308838	1465.435425	19.747904
282.293365	1121.831787	2908.115479	1533.701050	23.057327
282.668091	1096.801025	3165.249512	1540.527588	21.452145
283.042786	1089.974487	3099.259277	1506.394775	20.724802
283.417419	1094.525513	3281.301025	1667.956787	26.222687
283.792053	1146.862427	3197.106689	1515.496826	17.980024
284.166595	1130.933838	2990.034424	1535.976563	21.787025
284.541138	1121.831787	3035.544678	1501.843750	19.857313
284.915619	1080.872437	2910.391113	1551.905151	25.746264
285.290100	1121.831787	3008.238525	1508.670288	20.506632
285.664520	1165.066650	3094.708252	1586.037964	21.816036
286.038940	1119.556274	3081.055176	1570.109375	22.969837
286.413300	1105.903076	3215.310791	1645.201538	25.566345
286.787628	1153.689087	3281.301025	1661.130127	23.850264
287.161896	1160.515625	3399.628174	1654.303589	22.052843
287.536194	1130.933838	3390.525879	1679.334351	24.269890
287.910400	1128.658325	3388.250488	1622.446289	21.852968
288.284607	1003.504700	3351.842041	1718.018188	30.426355
288.658752	1155.964600	3060.575439	1545.078613	20.430105
289.032867	1121.831787	3005.962891	1538.252075	22.101450
289.406921	1121.831787	3083.330566	1533.701050	20.997681
289.781006	1124.107300	3160.698486	1563.282837	21.564247
290.154999	1146.862427	3194.831299	1629.272949	23.555559
290.529022	1133.209351	3281.301025	1626.997314	22.987284
290.902954	1053.566162	3404.179199	1722.569214	28.460791
291.276825	1103.627563	3479.271240	1718.018188	25.862072
291.650757	1069.494751	3458.791504	1686.160889	25.809523
292.024597	1094.525513	3392.801514	1718.018188	27.128714
292.398407	1085.423462	3401.903564	1736.222412	28.094305
292.772156	1178.719727	3345.015625	1706.640625	24.369751
293.145905	1096.801025	3247.168213	1549.629639	21.058199
293.519592	1146.862427	3217.586426	1617.895264	22.747252
293.893280	1130.933838	3285.852051	1631.548462	23.231258
294.266907	1078.596802	3228.964111	1620.170776	25.185186
294.640533	1069.494751	3429.209961	1640.650513	24.204435
295.014069	1083.147949	3429.209961	1592.864502	21.726475
295.387604	1121.831787	3686.343750	1788.559326	25.998222
295.761078	1085.423462	3754.609375	1804.488037	26.939470
296.134552	1128.658325	3677.241699	1695.262939	22.232138
296.507996	1165.066650	3718.200928	1711.191650	21.390375
296.881378	1067.219238	3759.160400	1761.253052	25.781908
297.254730	1080.872437	3988.988037	1822.692139	25.508604
297.628021	1126.382813	4070.906738	1831.794189	23.956720
298.001282	1142.311401	4159.651855	1961.498901	27.149324
298.374573	1121.831787	4282.530273	1856.824951	23.254137
298.747803	1096.801025	4257.499512	1872.753662	24.550037
299.121002	1096.801025	3988.988037	1840.896362	25.727774
299.494141	1124.107300	3729.578613	1752.151001	24.104803
299.867188	1119.556274	3624.904541	1679.334351	22.343325
300.240265	1076.321289	3720.476563	1774.906250	26.419968
300.613312	1174.168701	3681.792725	1722.569214	21.869328
300.986328	1224.230225	3520.230713	1620.170776	17.244793
301.359314	1094.525513	3499.750977	1713.467163	25.733206
301.732239	1194.648438	3367.770752	1645.201538	20.732985
302.105103	1171.893188	3447.414063	1722.569214	24.199997
302.477997	1080.872437	3608.976074	1661.130127	22.952291
302.850830	1149.138062	3593.047363	1649.752563	20.484169
303.223602	1140.035889	3422.383301	1565.558350	18.644070
303.596375	1119.556274	3497.475586	1604.242188	20.382772
303.969116	1101.352051	3251.719238	1597.415649	23.068787
304.341766	1110.454102	3319.984863	1636.099487	23.789909
304.714478	1135.484863	3324.535889	1663.405762	24.116426
305.087067	1051.290649	3224.413086	1606.517700	25.549734
305.459656	1126.382813	3279.025391	1581.486938	21.141649
305.832214	1085.423462	3165.249512	1570.109375	23.304155
306.204681	1174.168701	3190.280273	1561.007324	19.187363
306.577148	1151.413574	3299.505127	1665.681274	23.940680
306.949646	1180.995239	3397.352539	1620.170776	19.815195
307.322021	1126.382813	3228.964111	1588.313477	21.969694
307.694397	1128.658325	3308.607178	1520.047852	17.954071
308.066742	1058.117188	3408.730225	1620.170776	23.910936
308.439026	1092.250000	3370.046387	1595.140137	22.077923
308.811279	1128.658325	3527.057129	1633.823975	21.062620
309.183502	1067.219238	3677.241699	1574.660400	19.442022
309.555695	1112.729614	3654.486328	1658.854614	21.486122
309.927887	1071.770264	3656.761963	1624.721802	21.390844
310.299988	1146.862427	3688.619141	1647.477051	19.695614
310.672058	1146.862427	3788.742188	1699.814087	20.930235
311.044128	1155.964600	3777.364502	1752.151001	22.743053
311.416168	1119.556274	3872.936523	1665.681274	19.834709
311.788147	1115.005249	3781.915527	1647.477051	19.965870
312.160065	1199.199463	3829.701416	1672.507813	17.993082
312.531982	1089.974487	3822.875000	1670.232300	21.232307
312.903870	1130.933838	3659.037354	1670.232300	21.332136
313.275696	1117.280762	3579.394287	1586.037964	19.038813
313.647491	1149.138062	3627.180176	1576.935913	17.263544
314.019318	1119.556274	3554.363525	1633.823975	21.121496
314.391022	1124.107300	3488.373291	1563.282837	18.575554
314.762726	1124.107300	3556.638916	1636.099487	21.047709
315.134369	1126.382813	3684.068115	1688.436401	21.975088
315.505981	1194.648438	3668.139648	1608.793213	16.743330
315.877594	1092.250000	3866.109863	1706.640625	22.149303
316.249146	1096.801025	3740.956299	1704.365112	22.977625
316.620636	1169.617676	3606.700439	1661.130127	20.168066
316.992157	1194.648438	3513.404053	1579.211426	16.584887
317.363586	1121.831787	3411.005615	1572.384888	19.681908
317.735016	1094.525513	3442.863037	1556.456177	19.670540
318.106354	1117.280762	3385.974854	1563.282837	19.658978
318.477722	1099.076538	3399.628174	1613.344238	22.354103
318.849060	1153.689087	3458.791504	1563.282837	17.769003
319.220306	1180.995239	3504.302002	1547.354126	15.768856
319.591522	1083.147949	3602.149414	1549.629639	18.518517
319.962738	1103.627563	3631.731201	1681.609863	22.862288
320.333923	1167.342163	3588.496338	1497.292725	13.627821
320.705017	1076.321289	3492.924316	1556.456177	19.868174
321.076111	1105.903076	3577.118652	1633.823975	21.362803
321.447144	1151.413574	3449.689453	1565.558350	18.019802
321.818176	1160.515625	3467.893799	1620.170776	19.921103
322.189178	1085.423462	3333.637939	1590.588989	22.469633
322.560120	1144.586914	3417.832275	1617.895264	20.820822
322.931030	1115.005249	3508.853027	1549.629639	18.155891
323.301910	1174.168701	3590.771729	1690.711914	21.374765
323.672729	1124.107300	3779.640137	1597.415649	17.823481
324.043549	1140.035889	3829.701416	1590.588989	16.751268
324.414337	1162.791138	3966.232666	1658.854614	17.694805
324.785095	1089.974487	4241.570801	1743.048950	20.722023
325.155792	1080.872437	4216.540039	1784.008301	22.423801
325.526428	1151.413574	4312.111816	1622.446289	14.902805
325.897034	1160.515625	4091.386475	1733.946899	19.565218
326.267670	1078.596802	4116.416992	1654.303589	18.951311
326.638184	1165.066650	3959.406250	1688.436401	18.729641
327.008728	1083.147949	4152.825684	1715.742676	20.607855
327.379211	1101.352051	4064.080078	1608.793213	17.127497
327.749634	1103.627563	4043.600586	1683.885376	19.736841
328.120026	1133.209351	4077.733398	1617.895264	16.460587
328.490417	1115.005249	3841.079102	1670.232300	20.367279
328.860748	1058.117188	3982.161377	1622.446289	19.299610
329.231079	1105.903076	3809.221924	1677.058838	21.127947
329.601318	1171.893188	3797.844238	1629.272949	17.417679
329.971558	1076.321289	3879.762939	1624.721802	19.561687
330.341736	1130.933838	3941.202148	1617.895264	17.327934
330.711914	1133.209351	3925.273438	1636.099487	18.011412
331.082062	1155.964600	4007.192139	1690.711914	18.754986
331.452148	1212.852539	3968.508301	1661.130127	16.267548
331.822174	1137.760376	3943.477539	1615.619751	17.031630
332.192200	1169.617676	4064.080078	1667.956787	17.216984
332.562134	1121.831787	4084.559814	1670.232300	18.509985
332.932129	1119.556274	4134.621094	1583.762451	15.396225
333.302063	1144.586914	4282.530273	1674.783325	16.896303
333.671906	1174.168701	4325.765137	1638.375000	14.729243
334.041718	1126.382813	4314.387207	1727.120239	18.843683
334.411499	1103.627563	4362.173340	1763.528564	20.251394
334.781281	1117.280762	4318.938477	1731.671387	19.189766
335.151001	1160.515625	4423.612305	1761.253052	18.410040
335.520721	1135.484863	4198.335938	1695.262939	18.276373
335.890350	1126.382813	4266.601563	1720.293701	18.913042
336.259979	1174.168701	4355.346680	1699.814087	16.523609
336.629547	1135.484863	4382.652832	1665.681274	16.327963
336.999084	1144.586914	4273.428223	1570.109375	13.600001
337.368622	1165.066650	4419.061523	1574.660400	12.587412
337.738098	1096.801025	4421.336914	1606.517700	15.331964
338.107513	1112.729614	4328.040527	1613.344238	15.569711
338.476898	1165.066650	4355.346680	1652.028076	15.263908
338.846252	1087.698975	4371.275391	1665.681274	17.602219
339.215576	1080.872437	4507.806641	1736.222412	19.123507
339.584869	1124.107300	4243.846191	1718.018188	19.037199
339.954132	1137.760376	4485.051270	1608.793213	14.072062
340.323334	1035.361938	4312.111816	1652.028076	18.819445
340.692505	1126.382813	4237.019531	1586.037964	14.776883
341.061646	1130.933838	4082.284424	1538.252075	13.801080
341.430786	1130.933838	4300.734375	1649.752563	16.367552
341.799896	1146.862427	4382.652832	1642.926025	15.330523
342.168915	1108.178589	4437.265625	1647.477051	16.199591
342.537903	1158.240112	4523.735352	1570.109375	12.237999
342.906830	1062.668213	4566.970215	1663.405762	17.142859
343.275757	1108.178589	4687.572754	1711.191650	16.846792
343.644684	1176.444214	4758.113770	1724.844727	15.311310
344.013550	1155.964600	4849.134766	1656.579102	13.555143
344.382355	1140.035889	4749.011719	1697.538574	15.447670
344.751129	1117.280762	5090.339844	1763.528564	16.265749
345.119873	1142.311401	5306.514648	1820.416626	16.284153
345.488586	1126.382813	5304.238770	1768.079712	15.359479
345.857269	1169.617676	5497.658203	1777.181763	14.037856
346.225891	1126.382813	5720.659180	1715.742676	12.828133
346.594482	1178.719727	5527.240234	1799.937012	14.285716
346.963043	976.198425	5600.056641	1836.345337	18.602364
347.331543	1074.045776	5397.535156	1815.865601	17.157896
347.700043	1115.005249	5254.177734	1727.120239	14.788342
348.068512	1135.484863	5133.574707	1633.823975	12.464430
348.436951	1080.872437	5067.584961	1658.854614	14.497714
348.805328	1105.903076	4824.104004	1679.334351	15.422277
349.173645	1153.689087	4846.859375	1702.089600	14.849045
349.541931	1169.617676	4924.227051	1679.334351	13.575758
349.910217	1096.801025	4937.880371	1686.160889	15.343600
350.278473	1085.423462	5147.228027	1658.854614	14.117644
350.646667	1092.250000	5026.625488	1695.262939	15.326777
351.014801	1128.658325	5249.626465	1715.742676	14.246272
351.382935	1144.586914	5279.208496	1686.160889	13.098514
351.751007	1087.698975	5204.116211	1715.742676	15.257048
352.119049	1140.035889	5267.830566	1727.120239	14.222712
352.487091	1112.729614	5315.616699	1677.058838	13.427180
352.855072	1069.494751	5440.770020	1740.773438	15.356586
353.222992	1149.138062	5192.738281	1779.457275	15.588070
353.590881	1201.474976	5565.923828	1756.702026	12.721585
353.958740	1126.382813	5556.821777	1884.131226	17.103235
354.326599	1158.240112	5759.343262	1752.151001	12.908011
354.694397	1121.831787	5825.333008	1804.488037	14.513790
355.062134	1140.035889	6059.711914	1802.212524	13.459762
355.429840	1133.209351	6241.753418	1811.314575	13.273943
355.797516	1103.627563	6294.090332	1754.426514	12.538361
356.165192	1167.342163	6118.875488	1824.967651	13.281250
356.532776	1160.515625	6512.540527	1838.620850	12.670069
356.900360	1135.484863	6608.112305	1849.998413	13.056133
357.267883	1101.352051	6705.959961	1922.815063	14.656922
357.635376	1124.107300	7195.196777	1981.978638	14.130435
358.002808	1144.586914	7529.698242	1947.845825	12.580187
358.370270	1128.658325	7525.147461	1934.192627	12.593382
358.737640	1117.280762	7591.137207	1991.080688	13.497363
359.105011	1115.005249	7613.892578	2007.009399	13.725491
359.472321	1137.760376	7504.667480	1954.672363	12.830593
359.839569	1165.066650	7406.820313	1913.713013	11.994166
360.206787	1099.076538	7174.717285	1968.325439	14.307116
360.574005	1121.831787	7306.697266	1906.886475	12.693157
360.941193	1108.178589	8005.282227	1941.019287	12.075224
361.308319	1180.995239	8314.752930	2052.519775	12.216907
361.675415	1071.770264	8747.101563	2057.070801	12.837238
362.042450	1201.474976	9238.614258	2109.407715	11.296716
362.409424	1135.484863	9655.035156	2154.918213	11.965811
362.776428	1099.076538	10223.915039	2268.694336	12.817956
363.143402	1049.015137	9670.963867	2232.285889	13.723935
363.510284	1144.586914	8986.031250	2202.704102	13.493907
363.877136	1096.801025	8194.150391	2034.315552	13.209361
364.243988	1146.862427	7582.035156	2013.835938	13.472420
364.610779	1103.627563	7247.533691	2020.662476	14.925926
364.977539	1146.862427	7361.309570	1929.641602	12.596119
365.344269	1137.760376	6928.960938	1900.059814	13.163064
365.710938	1140.035889	6940.338379	1845.447388	12.161633
366.077576	1153.689087	6803.807129	1863.651489	12.565443
366.444183	1089.974487	6742.368164	1831.794189	13.123992
366.810760	1142.311401	6580.806152	1802.212524	12.133893
367.177277	1103.627563	6665.000488	1847.722900	13.379705
367.543823	1062.668213	6787.878418	1870.478149	14.109700
367.910248	1094.525513	6567.152832	1900.059814	14.719334
368.276642	1146.862427	6617.214355	1804.488037	12.021632
368.643036	1180.995239	6564.877441	1838.620850	12.214710
369.009399	1128.658325	6485.234375	1797.661377	12.489378
369.375671	1121.831787	6321.396973	1788.559326	12.822755
369.741974	1153.689087	6398.764648	1647.477051	9.414315
370.108215	1064.943726	6514.815918	1718.018188	11.983299
370.474396	1105.903076	6341.876465	1740.773438	12.125163
370.840546	1135.484863	6419.244141	1743.048950	11.498709
371.206665	1115.005249	6437.448242	1720.293701	11.372380
371.572784	1155.964600	6621.765625	1813.590088	12.031640
371.938843	1105.903076	6726.439453	1765.804199	11.740892
372.304840	1076.321289	6767.398926	1813.590088	12.954819
372.670807	1165.066650	6776.500977	1861.375977	12.408758
373.036713	1231.056763	6899.378906	1804.488037	10.116420
373.402649	1110.454102	6678.653320	1829.518677	12.913773
373.768524	1083.147949	6771.949707	1806.763550	12.720000
374.134308	1135.484863	6851.593262	1768.079712	11.066880
374.500122	1144.586914	6865.246094	1793.110352	11.336515
374.865875	1060.392700	6944.889648	1765.804199	11.987626
375.231567	1158.240112	6799.256348	1784.008301	11.093182
375.597260	1128.658325	7097.349609	1784.008301	10.979794
375.962891	1087.698975	7308.972656	1736.222412	10.424288
376.328461	1201.474976	7242.982910	1865.927002	10.998116
376.694031	1092.250000	7393.166992	1863.651489	12.242686
377.059540	1092.250000	7786.832031	1845.447388	11.250850
377.425049	1087.698975	8210.079102	1879.580200	11.118211
377.790497	1115.005249	8298.824219	1934.192627	11.403230
378.155945	1101.352051	8606.019531	1966.049927	11.522135
378.521301	1099.076538	8460.386719	1856.824951	10.293662
378.886597	1076.321289	8371.640625	1961.498901	12.133500
379.251892	1117.280762	8016.659668	1861.375977	10.784960
379.617157	1078.596802	7784.556641	1768.079712	10.281644
379.982422	1110.454102	7682.158203	1752.151001	9.764544
380.347595	1051.290649	7456.881836	1802.212524	11.722913
380.712738	1119.556274	7370.412109	1859.100464	11.831087
381.077820	1128.658325	7481.912598	1870.478149	11.676218
381.442902	1130.933838	7402.269043	1811.314575	10.849057
381.807953	1153.689087	7545.626953	1777.181763	9.754360
382.172974	1112.729614	7363.585449	1847.722900	11.758283
382.537933	1069.494751	7356.758789	1822.692139	11.979732
382.902832	1176.444214	7493.290039	1743.048950	8.969742
383.267700	1142.311401	7616.167969	1784.008301	9.912127
383.632538	1105.903076	7620.719238	1849.998413	11.421586
383.997345	1153.689087	7739.046387	1822.692139	10.158948
384.362152	1026.259888	8103.129395	1806.763550	11.028939
384.726898	1089.974487	8080.374512	1788.559326	9.993489
385.091553	1133.209351	8212.354492	1827.243164	9.803922
385.456238	1108.178589	8175.946289	1802.212524	9.819705
385.820862	1133.209351	8094.027344	1863.651489	10.493626
386.185425	1117.280762	8212.354492	1872.753662	10.647851
386.549988	1092.250000	8296.548828	1786.283813	9.633607
386.914490	1155.964600	8580.989258	1829.518677	9.071405
387.278961	1199.199463	8560.508789	1884.131226	9.304482
387.643372	1210.577026	8635.601563	1856.824951	8.703647
388.007782	1115.005249	8535.478516	1911.437500	10.732903
388.372101	1146.862427	8592.366211	1849.998413	9.443767
388.736450	1119.556274	8646.979492	1868.202637	9.945586
389.100739	1151.413574	8631.050781	1936.468262	10.495893
389.464966	1137.760376	8426.253906	1904.610962	10.521386
389.829163	1135.484863	8369.365234	1811.314575	9.342562
390.193329	1053.566162	8526.375977	1843.171875	10.566383
390.557495	1105.903076	8478.590820	1849.998413	10.092593
390.921570	1146.862427	8590.090820	1790.834839	8.651789
391.285614	1085.423462	8883.632813	1845.447388	9.746134
391.649597	1055.841675	9202.206055	1900.059814	10.363128
392.013550	1064.943726	9568.565430	1993.356201	10.917848
392.377502	1058.117188	9871.208984	1959.223389	10.224632
392.741455	1176.444214	9925.821289	1918.264038	8.478544
393.105316	1080.872437	9859.832031	1922.815063	9.590460
393.469086	1151.413574	9618.625977	1975.152100	9.728567
393.832886	1062.668213	9641.381836	1897.784302	9.734747
394.196655	1130.933838	9586.769531	1922.815063	9.364907
394.560333	1124.107300	9773.362305	1847.722900	8.366219
394.924042	1160.515625	9937.199219	1945.570313	8.944776
395.287659	1142.311401	9975.882813	1890.957764	8.475014
395.651245	1128.658325	9814.321289	1925.090576	9.169504
396.014771	1146.862427	9434.309570	1849.998413	8.484349
396.378296	1105.903076	9108.910156	1829.518677	9.041797
396.741791	1099.076538	9036.092773	1927.366089	10.435781
397.105255	1130.933838	8890.459961	1743.048950	7.888563
397.468628	1137.760376	8617.397461	1799.937012	8.853058
397.832001	1089.974487	8653.805664	1881.855713	10.469314
398.195313	1064.943726	8692.489258	1802.212524	9.665873
398.558624	1042.188477	8854.051758	1829.518677	10.078648
398.921844	1137.760376	8774.408203	1822.692139	8.969010
399.285095	1135.484863	8672.009766	1827.243164	9.178743
399.648254	1160.515625	8926.868164	1788.559326	8.086726
400.011383	1037.637451	8958.725586	1745.324463	8.934215
400.374451	1158.240112	8801.714844	1813.590088	8.573980
400.737549	1135.484863	8815.367188	1875.029175	9.629631
401.100586	1158.240112	8617.397461	1733.946899	7.718121
401.463562	1121.831787	8844.949219	1829.518677	9.163229
401.826508	1117.280762	8988.307617	1788.559326	8.528475
402.189392	1121.831787	8797.163086	1845.447388	9.427810
402.552246	1158.240112	8883.632813	1777.181763	8.011783
402.915070	1089.974487	8963.276367	1733.946899	8.179192
403.277893	1112.729614	9231.788086	1740.773438	7.735426
403.640656	1103.627563	9359.216797	1824.967651	8.737597
404.003326	1167.342163	9682.340820	1859.100464	8.123998
404.366028	1174.168701	9789.290039	1829.518677	7.606974
404.728699	1117.280762	10121.516602	1902.335449	8.718726
405.091248	1149.138062	10430.987305	1838.620850	7.428291
405.453857	1119.556274	10622.130859	1859.100464	7.782567
405.816345	1105.903076	10394.579102	1859.100464	8.108770
406.178833	1121.831787	10248.945313	1902.335449	8.551484
406.541260	1115.005249	10394.579102	1831.794189	7.724373
406.903687	1171.893188	10085.108398	1845.447388	7.556804
407.266052	1203.750488	9932.648438	1758.977539	6.360792
407.628387	1174.168701	9880.311523	1745.324463	6.560377
407.990662	1153.689087	9684.616211	1813.590088	7.735396
408.352905	1126.382813	9896.240234	1799.937012	7.680332
408.715118	1117.280762	9914.444336	1758.977539	7.294360
409.077332	1130.933838	9529.880859	1845.447388	8.507180
409.439484	1167.342163	9816.596680	1865.927002	8.076821
409.801575	1146.862427	9764.259766	1831.794189	7.948244
410.163605	1167.342163	9809.770508	1820.416626	7.556608
410.525635	1169.617676	10219.364258	1847.722900	7.493086
410.887604	1160.515625	10114.690430	1959.223389	8.919949
411.249573	1169.617676	10349.068359	1870.478149	7.635102
411.611481	1046.739624	10235.292969	1913.713013	9.435363
411.973328	1169.617676	10267.149414	1900.059814	8.029015
412.335144	1126.382813	10201.160156	1852.273926	7.998996
412.696930	1115.005249	10219.364258	1765.804199	7.148212
413.058685	1096.801025	10103.312500	1765.804199	7.427994
413.420410	1185.546387	10155.649414	1888.682251	7.838659
413.782104	1103.627563	9934.923828	1788.559326	7.755733
414.143707	1101.352051	10221.639648	1838.620850	8.083833
414.505310	1199.199463	10246.669922	1879.580200	7.520121
414.866852	1158.240112	10201.160156	1915.988525	8.379466
415.228394	1112.729614	10567.518555	1797.661377	7.244284
415.589874	1071.770264	10681.294922	1879.580200	8.406346
415.951324	1151.413574	10544.763672	1849.998413	7.437015
416.312683	1196.923950	11029.449219	1963.774414	7.799120
416.674072	1169.617676	11241.073242	1968.325439	7.930411
417.035370	1162.791138	11332.093750	1956.947876	7.809353
417.396667	1089.974487	11839.535156	1977.427612	8.255715
417.757935	1062.668213	11850.912109	2002.458252	8.711242
418.119141	1108.178589	12192.240234	1979.703125	7.862863
418.480286	1135.484863	12686.028320	2052.519775	7.939323
418.841400	1158.240112	13109.275391	2148.091553	8.282558
419.202484	1144.586914	13525.695313	2120.785400	7.884581
419.563568	1049.015137	14215.178711	2088.927979	7.898374
419.924591	1133.209351	14847.773438	2138.989502	7.333664
420.285553	1089.974487	14786.333984	2168.571289	7.875062
420.646484	1124.107300	16060.625977	2234.561523	7.434492
421.007355	1076.321289	16636.332031	2289.173828	7.794677
421.368225	1171.893188	17164.253906	2375.643799	7.527035
421.729065	1151.413574	17617.082031	2443.909424	7.849641
422.089874	1092.250000	18195.064453	2359.715088	7.410857
422.450592	1099.076538	18108.593750	2396.123291	7.625418
422.811279	1074.045776	18092.666016	2366.541748	7.594599
423.171936	1151.413574	17962.960938	2462.113525	7.796427
423.532593	1103.627563	17792.296875	2346.062012	7.444778
423.893127	1101.352051	17967.511719	2446.184814	7.973556
424.253723	1203.750488	18302.013672	2441.633789	7.239819
424.614197	1151.413574	18393.035156	2380.194824	7.126832
424.974670	1110.454102	18729.812500	2491.695313	7.839338
425.335052	1108.178589	19203.119141	2500.797363	7.696177
425.695496	1144.586914	18263.330078	2432.531738	7.523595
426.055817	1162.791138	18358.902344	2396.123291	7.172157
426.416168	1140.035889	18479.503906	2330.133301	6.863517
426.776398	1130.933838	17225.693359	2348.337402	7.563975
427.136627	1076.321289	16615.853516	2348.337402	8.185678
427.496826	1212.852539	16404.228516	2296.000488	7.130019
427.856995	1124.107300	15714.747070	2175.397949	7.205240
428.217102	1074.045776	15057.121094	2234.561523	8.299432
428.577179	1067.219238	15182.274414	2157.193604	7.722070
428.937195	1108.178589	14877.355469	2170.846924	7.717733
429.297180	1185.546387	14313.025391	2177.673340	7.557635
429.657135	1165.066650	14167.392578	2107.132324	7.245363
430.017059	1130.933838	14408.597656	2170.846924	7.832048
430.376984	1124.107300	14117.331055	2082.101563	7.373030
430.736786	1108.178589	13805.584961	2113.958740	7.921146
431.096588	1151.413574	13566.655273	2032.040039	7.093107
431.456360	1133.209351	13876.125977	2123.060791	7.767856
431.816071	1130.933838	13266.286133	2086.652588	7.875492
432.175781	1124.107300	13630.369141	2109.407715	7.878457
432.535400	1108.178589	13589.410156	1959.223389	6.818596
432.895020	1110.454102	13659.951172	2016.111450	7.216682
433.254578	1096.801025	13659.951172	2052.519775	7.607317
433.614105	1055.841675	14055.891602	2136.714111	8.314371
433.973602	1094.525513	14492.791992	2084.376953	7.387907
434.333038	1119.556274	14215.178711	2173.122314	8.045177
434.692444	1115.005249	14588.364258	2127.612061	7.515622
435.051819	1062.668213	14688.486328	2204.979736	8.383434
435.411133	1110.454102	14825.017578	2107.132324	7.267298
435.770416	1096.801025	13978.524414	2125.336426	7.984455
436.129669	1099.076538	14740.824219	2150.367188	7.706422
436.488861	1062.668213	14283.444336	2148.091553	8.209982
436.848083	1180.995239	14151.463867	2029.764526	6.543860
437.207184	1199.199463	14219.729492	2168.571289	7.444949
437.566254	1135.484863	14490.516602	2129.887451	7.445902
437.925293	1110.454102	14465.485352	2161.744873	7.871871
438.284363	1146.862427	14474.587891	2179.948975	7.751409
438.643311	1121.831787	14895.559570	2173.122314	7.632578
439.002258	1140.035889	14784.058594	2275.520752	8.322215
439.361145	1260.638550	15532.705078	2259.592041	6.999362
439.719971	1124.107300	16067.452148	2245.938965	7.507233
440.078827	1105.903076	16160.749023	2325.582275	8.101572
440.437592	1128.658325	16809.271484	2255.041016	7.183282
440.796295	1049.015137	16959.457031	2302.827148	7.880435
441.155029	1103.627563	17767.265625	2418.878662	7.892941
441.513672	1110.454102	18297.462891	2455.286865	7.824706
441.872253	1187.821899	18154.105469	2409.776611	7.202253
442.230865	1076.321289	17605.705078	2425.705078	8.163547
442.589386	1085.423462	17739.960938	2387.021240	7.815274
442.947876	1121.831787	17587.500000	2427.980713	7.932559
443.306335	1160.515625	17435.041016	2425.705078	7.774048
443.664764	1158.240112	16292.728516	2334.684326	7.773267
444.023102	1105.903076	16809.271484	2382.470215	8.129257
444.381500	1071.770264	16688.669922	2352.888428	8.203409
444.739777	1115.005249	16829.751953	2402.949951	8.195771
445.098022	1112.729614	17027.722656	2450.735840	8.407206
445.456238	1074.045776	16816.099609	2414.327637	8.514022
445.814423	1092.250000	17423.662109	2480.317627	8.499373
446.172577	1124.107300	18329.320313	2516.726074	8.094168
446.530701	1117.280762	18502.259766	2489.419678	7.892670
446.888733	1146.862427	18923.230469	2544.032227	7.859704
447.246765	1071.770264	19824.337891	2619.124512	8.251426
447.604736	1135.484863	19398.814453	2539.481201	7.687516
447.962677	1069.494751	19378.335938	2562.236328	8.153118
448.320587	1103.627563	19612.712891	2598.644775	8.077208
448.678436	1171.893188	19376.060547	2509.899414	7.349999
449.036255	1101.352051	19171.263672	2623.675537	8.424631
449.394043	1080.872437	18165.482422	2523.552490	8.444325
449.751770	1121.831787	18577.351563	2578.165039	8.343110
450.109467	1130.933838	18195.064453	2453.011475	7.747700
450.467163	1121.831787	17692.173828	2482.593262	8.212030
450.824768	1137.760376	17526.060547	2530.379150	8.497640
451.182343	1140.035889	17180.181641	2430.256104	8.043694
451.539886	1087.698975	16511.179688	2464.388916	8.925936
451.897369	1074.045776	16818.375000	2368.817139	8.223732
452.254822	1108.178589	16527.107422	2421.154053	8.515348
452.612274	1115.005249	17064.130859	2377.919189	7.918390
452.969635	1119.556274	16850.232422	2448.460449	8.447852
453.326965	1121.831787	16579.445313	2321.031250	7.757986
453.684326	1110.454102	16574.892578	2496.246338	8.961155
454.041534	1042.188477	16290.453125	2377.919189	8.759887
454.398773	1144.586914	15771.634766	2250.489990	7.560672
454.755951	1112.729614	15605.521484	2282.347412	8.070341
455.113098	1096.801025	15077.600586	2309.653564	8.675130
455.470215	1094.525513	15207.305664	2305.102539	8.577878
455.827240	1121.831787	15088.978516	2241.387939	8.015640
456.184265	1099.076538	15048.019531	2255.041016	8.287111
456.541260	1160.515625	14916.039063	2289.173828	8.205128
456.898193	1099.076538	15207.305664	2284.622803	8.403225
457.255096	1115.005249	15352.938477	2375.643799	8.854084
457.611969	1146.862427	15141.315430	2357.439453	8.650406
457.968781	1115.005249	15109.458008	2455.286865	9.577234
458.325531	1149.138062	15318.805664	2318.755615	8.254375
458.682312	1137.760376	16374.647461	2291.449463	7.571685
459.039001	1128.658325	16679.568359	2427.980713	8.355282
459.395630	1176.444214	17664.867188	2446.184814	7.700800
459.752289	1128.658325	18577.351563	2619.124512	8.541993
460.108856	1115.005249	20338.605469	2671.461426	8.096591
460.465363	1190.097412	20923.414063	2753.380127	7.922048
460.821899	1112.729614	21157.792969	2771.584229	8.275627
461.178345	1124.107300	20495.615234	2803.441650	8.669095
461.534760	1069.494751	20183.869141	2653.257324	8.285715
461.891144	1074.045776	19822.062500	2562.236328	7.937856
462.247467	1130.933838	18272.431641	2525.828125	8.137528
462.603760	1108.178589	18226.921875	2559.960938	8.480659
462.960052	1076.321289	17271.203125	2441.633789	8.430518
463.316254	1042.188477	16859.333984	2441.633789	8.847648
463.672424	1128.658325	16349.617188	2450.735840	8.685902
464.028564	1112.729614	16115.238281	2391.572266	8.524192
464.384644	1121.831787	16010.564453	2357.439453	8.298944
464.740723	1087.698975	15917.267578	2296.000488	8.147921
465.096741	1078.596802	16167.575195	2282.347412	7.977681
465.452698	1160.515625	15687.440430	2389.296875	8.458647
465.808655	1080.872437	15869.482422	2346.062012	8.555162
466.164520	1176.444214	15928.645508	2371.092773	8.098104
466.520355	1149.138062	16392.851563	2432.531738	8.419167
466.876190	1080.872437	16515.730469	2361.990479	8.300160
467.231964	1124.107300	16388.300781	2464.388916	8.780560
467.587677	1210.577026	17095.988281	2427.980713	7.663659
467.943390	1153.689087	17398.632813	2437.082764	7.900266
468.299011	1165.066650	16822.925781	2361.990479	7.644237
468.654633	1060.392700	16722.802734	2443.909424	8.833358
469.010223	1121.831787	16768.312500	2503.072998	8.827807
469.365723	1135.484863	16190.330078	2400.674561	8.403871
469.721191	1169.617676	16538.484375	2357.439453	7.728753
470.076660	1110.454102	15651.032227	2359.715088	8.591550
470.432068	1092.250000	16035.594727	2341.510986	8.359982
470.787445	1130.933838	15753.430664	2334.684326	8.232182
471.142792	1135.484863	15707.919922	2414.327637	8.775765
471.498016	1130.933838	16269.973633	2505.348389	9.078611
471.853271	1153.689087	16044.697266	2441.633789	8.649144
472.208496	1064.943726	15944.574219	2371.092773	8.778101
472.563660	1137.760376	16101.584961	2468.940186	8.895987
472.918762	1130.933838	16356.443359	2455.286865	8.698251
473.273865	1155.964600	16870.710938	2450.735840	8.239212
473.628876	1108.178589	17596.601563	2528.103516	8.611648
473.983917	1128.658325	17155.150391	2489.419678	8.490700
474.338837	1144.586914	17239.345703	2468.940186	8.228476
474.693787	1160.515625	17255.273438	2553.134277	8.652622
475.048645	1062.668213	17146.048828	2434.807373	8.531410
475.403503	1146.862427	17264.376953	2450.735840	8.089792
475.758270	1069.494751	17598.876953	2443.909424	8.314979
476.113037	1117.280762	17073.232422	2507.624023	8.713634
476.467773	1155.964600	17755.888672	2537.205811	8.320768
476.822418	1187.821899	18370.279297	2735.176025	9.005430
477.177063	1162.791138	18236.023438	2603.195801	8.436625
477.531647	1085.423462	18741.189453	2655.532715	8.892899
477.886200	1117.280762	19159.884766	2632.777588	8.399547
478.240723	1053.566162	19487.560547	2641.879639	8.616220
478.595184	1221.954712	19899.429688	2773.859863	8.308967
478.949585	1105.903076	20202.074219	2821.645752	8.984747
479.303986	1144.586914	20570.708984	2821.645752	8.633009
479.658325	1067.219238	20618.494141	2662.359375	8.158752
480.012634	1039.912964	20866.525391	2771.584229	8.734075
480.366913	1124.107300	21510.498047	2912.666504	8.773300
480.721130	1117.280762	21774.458984	2867.156250	8.471029
481.075317	1185.546387	22186.328125	3001.411865	8.646657
481.429474	1174.168701	23121.566406	3015.064941	8.387765
481.783569	1169.617676	23977.162109	3053.749023	8.261001
482.137604	1108.178589	25519.964844	3096.983887	8.146906
482.491669	1030.810913	27715.843750	3233.515137	8.254456
482.845612	1158.240112	30471.500000	3467.893799	7.879212
483.199554	1099.076538	34078.199219	3907.069336	8.514456
483.553436	1228.781250	39191.292969	4130.070313	7.642511
483.907318	1076.321289	46238.582031	4910.573730	8.489947
484.261139	1124.107300	52971.847656	5656.944824	8.742594
484.614899	1174.168701	56059.730469	5866.292480	8.548923
484.968628	1185.546387	56178.058594	6025.579102	8.801258
485.322357	1128.658325	54141.464844	5707.006348	8.636306
485.675964	1133.209351	50912.503906	5443.045898	8.657890
486.029572	1083.147949	47458.261719	5163.156738	8.797841
486.383148	1137.760376	44158.757813	4846.859375	8.621602
486.736694	1190.097412	42135.820313	4646.613281	8.441702
487.090149	1153.689087	41844.550781	4607.929688	8.488983
487.443604	1121.831787	42311.035156	4698.950684	8.684604
487.796997	1180.995239	43730.957031	4703.501465	8.278519
488.150360	1060.392700	45353.406250	4994.768066	8.882610
488.503693	1115.005249	45690.183594	4946.982422	8.596661
488.856964	1153.689087	45214.597656	4828.655273	8.340650
489.210175	1080.872437	43407.835938	4794.522461	8.773722
489.563416	1101.352051	41471.367188	4580.623535	8.618455
489.916565	1060.392700	39239.082031	4387.204102	8.713792
490.269653	1160.515625	36629.058594	4095.937500	8.276128
490.622772	1099.076538	35306.980469	4023.120850	8.547862
490.975769	1165.066650	35072.601563	4039.049316	8.475941
491.328735	1121.831787	36212.636719	3984.437012	8.157707
491.681732	1069.494751	38310.667969	4161.927734	8.303802
492.034607	1083.147949	39716.941406	4373.550781	8.516904
492.387482	1185.546387	40822.843750	4405.408203	8.123313
492.740326	1119.556274	40385.941406	4369.000000	8.275383
493.093079	1135.484863	38711.160156	4357.622559	8.575063
493.445862	1103.627563	35589.144531	4045.875977	8.531838
493.798523	1176.444214	33186.195313	3836.528076	8.310230
494.151215	1128.658325	30680.847656	3565.741211	8.246709
494.503815	1076.321289	28628.328125	3397.352539	8.424182
494.856384	1151.413574	27258.462891	3333.637939	8.358755
495.208923	1074.045776	25824.884766	3190.280273	8.550152
495.561432	1021.708862	24709.880859	3092.432861	8.741595
495.913879	1162.791138	24639.339844	3117.463379	8.326063
496.266296	1051.290649	24532.390625	3169.800537	9.022191
496.618683	1155.964600	24648.441406	3188.004639	8.649748
496.970978	1180.995239	25073.962891	3231.239502	8.580953
497.323273	1180.995239	24837.308594	3069.677490	7.983840
497.675507	1140.035889	25403.914063	3313.158203	8.956203
498.027710	1092.250000	25426.669922	3147.045166	8.443987
498.379852	1133.209351	25199.117188	3188.004639	8.538200
498.731995	1249.260864	25349.300781	3101.534912	7.685772
499.084076	1233.332275	24147.826172	3030.993652	7.845084
499.436096	1135.484863	24684.849609	3135.667725	8.493574
499.788086	1158.240112	23786.019531	3103.810303	8.598149
500.140106	1228.781250	23654.039063	3015.064941	7.965499
500.491943	1160.515625	22611.849609	2912.666504	8.168028
500.843842	1151.413574	22413.880859	2846.676514	7.973031
501.195679	1133.209351	22154.470703	2798.890625	7.923793
501.547455	1103.627563	21685.712891	2807.992676	8.280818
501.899231	1103.627563	21556.007813	2876.258301	8.667112
502.250885	1064.943726	21298.875000	2798.890625	8.569501
502.602600	1115.005249	20868.800781	2807.992676	8.570441
502.954193	1076.321289	21328.457031	2719.247314	8.112359
503.305786	1064.943726	21307.976563	2833.023438	8.734262
503.657379	1103.627563	21460.437500	2844.401123	8.551308
504.008820	1146.862427	20850.597656	2760.206787	8.188013
504.360291	1135.484863	21296.599609	2812.543701	8.318284
504.711700	1074.045776	21408.099609	2807.992676	8.527306
505.063080	1108.178589	21615.171875	2814.819336	8.322237
505.414368	1128.658325	21521.875000	2798.890625	8.190137
505.765656	1119.556274	21394.447266	2757.931152	8.080808
506.116943	1151.413574	21774.458984	2905.840088	8.507116
506.468109	1171.893188	21282.945313	2853.503174	8.361621
506.819305	1101.352051	21182.822266	2762.482178	8.271955
507.170410	1096.801025	20952.996094	2842.125488	8.789824
507.521484	1174.168701	21203.302734	2746.553711	7.850489
507.872559	1155.964600	21708.468750	2826.196777	8.126660
508.223480	1162.791138	21733.500000	2919.493164	8.539823
508.574493	1183.270874	21692.539063	2839.849854	8.077222
508.925385	1103.627563	22197.705078	2853.503174	8.295578
509.276245	1105.903076	22397.951172	2894.462402	8.400127
509.627045	1128.658325	22477.593750	2878.533936	8.196548
509.977814	1087.698975	22905.392578	2933.146240	8.458489
510.328613	1165.066650	22816.646484	2876.258301	7.903311
510.679260	1119.556274	23030.546875	2951.350586	8.360162
511.029999	1137.760376	23233.068359	2999.136475	8.424305
511.380585	1126.382813	23055.576172	3030.993652	8.685275
511.731140	1153.689087	23608.527344	2971.830078	8.096879
512.081726	1151.413574	23781.468750	3167.524902	8.908998
512.432129	1078.596802	24288.908203	3051.473389	8.500001
512.782654	1076.321289	23997.642578	3067.402100	8.686588
513.133057	1149.138062	24323.041016	3094.708252	8.395522
513.483398	1162.791138	23963.509766	3206.208740	8.962075
513.833801	1149.138062	24245.673828	3101.534912	8.453202
514.183960	1235.607788	23624.457031	3067.402100	8.181726
514.534302	1099.076538	23799.671875	3037.820313	8.540498
514.884460	1105.903076	23524.333984	2971.830078	8.323183
515.234619	1085.423462	23360.496094	3037.820313	8.764940
515.584717	1076.321289	23663.140625	3001.411865	8.523070
515.934753	1110.454102	23610.804688	3030.993652	8.535598
516.284851	1108.178589	23558.466797	3028.718262	8.554632
516.634766	1089.974487	24161.480469	3003.687500	8.294703
516.984741	1069.494751	24311.664063	3049.197754	8.517720
517.334595	1067.219238	24819.105469	3056.024414	8.373251
517.684448	1158.240112	25633.742188	3115.187988	7.995537
518.034363	1039.912964	26398.316406	3345.015625	9.090093
518.384094	1142.311401	27431.402344	3440.587402	8.742317
518.733826	1171.893188	28783.062500	3492.924316	8.406132
519.083496	1085.423462	29151.697266	3458.791504	8.456300
519.433167	1126.382813	30034.599609	3622.629150	8.635076
519.782776	1149.138062	29845.730469	3572.567627	8.445008
520.132324	1105.903076	29472.544922	3508.853027	8.471041
520.481873	1146.862427	28835.400391	3524.781738	8.588100
520.831299	1130.933838	28207.355469	3486.097900	8.698210
521.180786	1094.525513	27611.169922	3267.647949	8.195315
521.530151	1085.423462	26832.941406	3310.882813	8.643394
521.879517	1167.342163	26209.449219	3322.260254	8.605178
522.228882	1087.698975	26798.808594	3370.046387	8.876892
522.578064	1167.342163	26188.968750	3247.168213	8.312114
522.927307	1144.586914	26498.439453	3276.750000	8.409622
523.276489	1055.841675	26211.724609	3226.688477	8.629579
523.625610	1069.494751	26625.869141	3363.219727	8.975159
523.974792	1146.862427	27244.810547	3342.739990	8.413985
524.323792	1119.556274	26987.675781	3533.883789	9.333217
524.672852	1130.933838	27533.800781	3499.750977	8.971818
525.021790	1083.147949	28635.154297	3517.955078	8.837132
525.370728	1092.250000	29734.230469	3638.557861	8.890125
525.719604	1171.893188	31470.453125	3829.701416	8.772060
526.068420	1171.893188	33006.429688	3932.099854	8.670478
526.417297	1165.066650	34314.855469	4105.039551	8.868753
526.765991	1037.637451	35332.011719	4132.345703	9.023952
527.114746	1083.147949	36481.148438	4273.428223	9.012600
527.463379	1146.862427	38099.042969	4364.448730	8.707434
527.812012	1155.964600	40194.800781	4457.745117	8.457682
528.160706	1155.964600	43064.230469	4760.389648	8.600750
528.509155	1180.995239	47123.761719	5144.952637	8.628035
528.857727	1151.413574	52205.000000	5825.333008	9.154929
529.206177	1140.035889	55520.433594	6205.345215	9.314587
529.554565	1076.321289	56421.539063	6346.427734	9.522243
529.902893	1135.484863	55429.410156	5993.721680	8.948030
530.251221	1080.872437	53292.695313	5709.281738	8.864676
530.599548	1112.729614	49820.253906	5461.250000	8.927821
530.947876	1142.311401	46748.300781	5135.850586	8.756611
531.296021	1142.311401	43280.406250	4915.125000	8.953451
531.644165	1194.648438	40602.117188	4642.062500	8.748123
531.992249	1103.627563	38679.300781	4430.438965	8.853632
532.340454	1121.831787	37277.582031	4282.530273	8.741898
532.688354	1149.138062	36927.152344	4237.019531	8.630667
533.036438	1117.280762	38023.953125	4323.489746	8.687343
533.384338	1201.474976	39753.347656	4457.745117	8.446465
533.732239	1053.566162	41334.835938	4514.633301	8.592250
534.080139	1219.679199	42292.828125	4981.115234	9.157895
534.427917	1133.209351	41801.316406	4810.451172	9.042078
534.775757	1128.658325	40153.839844	4632.960449	8.979593
535.123474	1178.719727	38340.250000	4428.163574	8.744106
535.471191	1185.546387	36497.078125	4400.857422	9.105556
535.818848	1194.648438	35627.828125	4141.447754	8.558022
536.166382	1071.770264	34335.332031	4048.151611	8.947873
536.513977	1044.463989	34048.617188	4066.355713	9.156096
536.861511	1162.791138	34137.363281	4107.314941	8.929681
537.208984	1051.290649	34396.773438	3986.712402	8.803057
537.556396	1185.546387	33971.250000	4171.029785	9.106052
537.903809	1105.903076	33286.316406	3986.712402	8.952058
538.251160	1149.138062	32298.742188	3793.293213	8.488568
538.598389	1176.444214	31688.902344	3884.313965	8.874636
538.945740	1085.423462	30273.529297	3863.834229	9.518983
539.292969	1135.484863	29722.853516	3788.742188	9.281222
539.640137	1076.321289	29379.250000	3693.170166	9.245858
539.987244	1133.209351	29527.158203	3638.557861	8.823530
540.334351	1119.556274	30134.722656	3686.343750	8.846365
540.681458	1080.872437	31845.914063	3820.599365	8.905326
541.028442	1185.546387	34210.179688	4152.825684	8.985048
541.375366	1194.648438	37277.582031	4496.429199	9.150533
541.722290	1137.760376	40238.035156	4755.838379	9.253332
542.069153	1124.107300	43157.527344	5019.798828	9.268081
542.416016	1140.035889	42868.535156	5113.095215	9.521213
542.762756	1094.525513	42276.902344	4824.104004	9.056250
543.109558	1126.382813	40920.691406	4828.655273	9.303522
543.456299	1105.903076	39582.683594	4514.633301	8.859187
543.802917	1060.392700	38246.953125	4425.888184	9.050302
544.149536	1078.596802	36767.863281	4546.490723	9.716910
544.496094	1174.168701	34230.660156	4289.356934	9.423832
544.842651	1099.076538	32988.226563	4127.794922	9.497644
545.189148	1044.463989	31199.666016	4009.467773	9.832479
545.535583	1105.903076	29854.832031	3816.048340	9.426943
545.882019	1126.382813	29354.218750	3772.813477	9.375252
546.228333	1124.107300	28368.917969	3684.068115	9.396141
546.574707	1130.933838	28441.734375	3713.649902	9.456757
546.920898	1155.964600	28580.541016	3665.864014	9.152008
547.267212	1142.311401	28548.683594	3738.680664	9.473597
547.613342	1119.556274	28484.968750	3649.935303	9.246632
547.959473	1153.689087	27831.894531	3752.333740	9.740703
548.305664	1103.627563	27099.177734	3649.935303	9.795167
548.651611	1087.698975	26446.103516	3620.353516	9.987436
548.997742	1126.382813	25563.201172	3536.159424	9.861254
549.343689	1235.607788	24090.939453	3401.903564	9.478295
549.689575	1105.903076	23572.119141	3231.239502	9.460144
550.035522	1133.209351	22930.423828	3269.923340	9.802692
550.381287	1074.045776	21835.898438	3192.555664	10.203856
550.727173	1144.586914	21517.324219	3153.871826	9.862616
551.072876	1078.596802	21048.568359	3244.892578	10.847767
551.418640	1144.586914	21046.291016	3208.484375	10.370457
551.764282	1099.076538	20652.626953	3142.494141	10.450366
552.109863	1142.311401	20684.484375	3106.085938	10.048905
552.455505	1121.831787	20916.587891	3351.842041	11.265662
552.801025	1105.903076	20816.464844	3269.923340	10.978988
553.146545	1146.862427	21205.578125	3144.769775	9.960296
553.491943	1169.617676	21451.333984	3299.505127	10.501514
553.837341	1105.903076	21485.466797	3445.138428	11.478338
554.182800	1192.372925	21210.128906	3222.137451	10.139820
554.528015	1108.178589	21025.812500	3308.607178	11.047641
554.873352	1126.382813	20516.095703	3208.484375	10.738176
555.218628	1137.760376	20395.492188	3253.994629	10.989011
555.563721	1117.280762	20147.460938	3183.453613	10.857348
555.908875	1137.760376	19967.695313	3203.933350	10.972809
556.254028	1174.168701	19578.580078	3181.177979	10.905045
556.599121	1071.770264	19239.529297	3172.075928	11.560620
556.944031	1226.505737	19230.425781	3149.320801	10.679980
557.289063	1133.209351	18889.097656	3058.300049	10.841985
557.633972	1135.484863	18900.476563	3178.902588	11.502497
557.978882	1192.372925	18684.300781	3194.831299	11.447900
558.323792	1128.658325	18613.759766	3210.759766	11.907861
558.668518	1089.974487	18247.400391	3131.116699	11.896553
559.013306	1171.893188	18381.656250	3231.239502	11.966150
559.358032	1174.168701	18408.962891	3185.729004	11.671507
559.702637	1135.484863	18286.085938	3183.453613	11.941090
560.047363	1185.546387	18354.351563	3215.310791	11.822398
560.391846	1067.219238	18331.595703	3231.239502	12.534598
560.736450	1103.627563	18085.839844	3267.647949	12.742866
561.080933	1144.586914	18281.533203	3354.117676	12.893375
561.425354	1119.556274	18042.603516	3240.341553	12.531935
561.769775	1155.964600	18431.718750	3370.046387	12.816122
562.114136	1117.280762	18577.351563	3397.352539	13.058778
562.458496	1142.311401	18684.300781	3372.321777	12.712413
562.802673	1174.168701	18695.679688	3367.770752	12.519480
563.146912	1128.658325	18506.810547	3424.658691	13.211994
563.491150	1126.382813	18074.460938	3415.556641	13.506982
563.835266	1089.974487	18276.982422	3345.015625	13.120614
564.179443	1076.321289	18261.054688	3479.271240	13.983049
564.523438	1060.392700	18361.177734	3542.985840	14.349599
564.867493	1064.943726	18324.769531	3577.118652	14.555041
565.211426	1049.015137	18402.136719	3588.496338	14.634147
565.555359	1115.005249	18757.117188	3652.210938	14.381530
565.899231	1133.209351	19014.251953	3690.894775	14.303895
566.243042	1108.178589	19412.468750	3845.630127	14.955246
566.586914	1121.831787	20101.951172	3913.895752	14.710466
566.930603	1151.413574	20329.501953	4064.080078	15.187470
567.274292	1178.719727	20488.789063	4059.529053	14.918689
567.617981	1108.178589	20543.402344	4175.580566	15.782693
567.961609	1112.729614	20354.533203	4241.570801	16.260645
568.305237	1187.821899	19815.234375	4066.355713	15.453213
568.648682	1155.964600	19694.632813	4102.764160	15.895422
568.992188	1092.250000	19665.050781	4180.131836	16.625828
569.335632	1119.556274	19109.824219	4077.733398	16.443209
569.679016	1080.872437	19077.966797	4014.018799	16.297890
570.022461	1064.943726	18861.791016	4027.671875	16.647488
570.365662	1112.729614	19125.751953	4116.416992	16.675089
570.708984	1030.810913	18968.742188	4132.345703	17.290369
571.052185	1089.974487	19105.273438	4252.948242	17.557154
571.395386	1115.005249	19050.660156	4241.570801	17.432123
571.738525	1117.280762	19389.712891	4314.387207	17.496885
572.081604	1180.995239	19935.837891	4437.265625	17.362293
572.424683	1121.831787	20563.880859	4553.316895	17.649813
572.767578	1201.474976	20716.341797	4687.572754	17.863804
573.110596	1176.444214	20566.156250	4669.368652	18.014317
573.453552	1155.964600	20331.779297	4808.175293	19.045921
573.796387	1146.862427	20379.564453	4621.582520	18.066730
574.139282	1192.372925	20088.296875	4642.062500	18.256262
574.481995	1080.872437	20097.400391	4767.216309	19.384947
574.824768	1089.974487	20086.021484	4753.562988	19.286057
575.167480	1112.729614	20004.103516	4710.328125	19.043606
575.510132	1137.760376	19564.927734	4860.512207	20.202518
575.852722	1110.454102	19749.244141	4860.512207	20.119644
576.195251	1167.342163	19558.101563	4676.195313	19.079435
576.537842	1108.178589	19214.498047	4710.328125	19.894430
576.880188	1130.933838	18980.119141	4817.277344	20.652727
577.222717	1183.270874	18534.117188	4737.634277	20.485245
577.565063	1062.668213	18386.208984	4596.552246	20.399317
577.907410	1146.862427	18295.187500	4719.430176	20.833336
578.249756	1144.586914	17689.898438	4592.000977	20.836199
578.591919	1169.617676	17419.111328	4689.848145	21.663631
578.934204	1130.933838	16898.017578	4498.704590	21.359503
579.276306	1089.974487	16588.546875	4500.979980	22.008514
579.618469	1140.035889	16265.422852	4346.244629	21.197533
579.960571	1219.679199	16269.973633	4462.296387	21.545206
580.302551	1215.128052	15685.165039	4387.204102	21.921686
580.644531	1160.515625	15933.196289	4457.745117	22.319778
580.986511	1137.760376	15694.266602	4237.019531	21.291231
581.328369	1096.801025	15407.551758	4475.949219	23.612654
581.670227	1206.026001	15250.540039	4257.499512	21.727158
582.012024	1108.178589	15098.080078	4300.734375	22.820431
582.353821	1126.382813	15077.600586	4193.784668	21.986624
582.695496	1112.729614	14902.385742	4346.244629	23.448845
583.037231	1064.943726	14854.599609	4394.030762	24.141914
583.378845	1080.872437	15027.539063	4409.959473	23.870125
583.720398	1128.658325	14925.140625	4330.315918	23.206333
584.062012	1060.392700	14520.098633	4218.815430	23.465763
584.403442	1044.463989	14622.497070	4262.050293	23.696999
584.744934	1117.280762	14640.701172	4384.928711	24.162882
585.086365	1085.423462	14488.241211	4291.632324	23.921904
585.427734	1135.484863	14845.498047	4323.489746	23.253113
585.768982	1135.484863	14590.639648	4207.437988	22.831051
586.110291	1149.138062	14440.455078	4255.224121	23.369286
586.451599	1167.342163	14160.566406	4223.366699	23.520138
586.792725	1108.178589	14638.425781	4353.071289	23.982508
587.133850	1142.311401	14456.383789	4277.979004	23.551529
587.474915	1105.903076	14392.668945	4409.959473	24.867273
587.815979	1162.791138	14583.812500	4366.724609	23.872501
588.157043	1137.760376	14419.975586	4437.265625	24.841530
588.497925	1124.107300	14558.782227	4273.428223	23.441734
588.838867	1135.484863	14567.883789	4457.745117	24.733187
589.179749	1028.535400	14884.181641	4630.685059	25.997702
589.520569	1174.168701	14668.006836	4487.327148	24.553122
589.861450	1055.841675	15025.263672	4530.562012	24.873758
590.202087	1074.045776	15016.162109	4541.939453	24.873508
590.542847	1110.454102	14879.630859	4601.103027	25.351181
590.883484	1053.566162	15118.560547	4673.919922	25.740173
591.224121	1128.658325	15070.774414	4425.888184	23.649422
591.564636	1140.035889	14982.029297	4601.103027	25.004110
591.905151	1128.658325	14870.528320	4612.480469	25.351879
592.245667	1128.658325	14886.457031	4644.337891	25.554085
592.585999	1142.311401	14731.721680	4576.072266	25.267916
592.926453	1085.423462	14572.435547	4639.787109	26.353975
593.266724	1112.729614	14768.129883	4610.205078	25.612398
593.607056	1135.484863	14495.067383	4644.337891	26.264692
593.947388	1130.933838	14636.149414	4544.214844	25.273798
594.287476	1160.515625	14690.762695	4628.409180	25.630674
594.627686	1142.311401	14820.466797	4626.133789	25.469971
594.967773	1201.474976	15230.060547	4671.644043	24.736412
595.307861	1112.729614	15302.876953	4676.195313	25.112253
595.647888	1128.658325	14977.477539	4780.869141	26.372002
595.987854	1085.423462	15439.408203	4655.715332	24.873177
596.327820	1128.658325	15582.766602	4880.992188	25.960329
596.667725	1101.352051	16076.554688	4931.053711	25.573620
597.007568	1142.311401	16638.607422	5097.166504	25.521292
597.347351	1146.862427	16995.865234	5124.472656	25.096912
597.687073	1069.494751	17357.671875	5154.054688	25.076839
598.026794	1067.219238	17284.855469	5283.759277	25.999720
598.366455	1149.138062	16879.812500	5222.320313	25.893246
598.706116	1121.831787	16597.648438	5103.993164	25.731510
599.045654	1117.280762	16072.003906	5031.176270	26.171635
599.385193	1112.729614	15373.418945	4894.645020	26.519865
599.724731	1137.760376	15220.958984	4662.541992	25.028276
600.064087	1146.862427	14663.456055	4721.705566	26.447811
600.403564	1124.107300	14344.882813	4471.398438	25.318417
600.742920	1126.382813	14297.097656	4494.153809	25.570147
601.082153	1128.658325	13801.033203	4439.541016	26.126774
601.421387	1087.698975	14024.035156	4528.286621	26.596308
601.760620	1151.413574	14096.851563	4430.438965	25.329584
602.099854	1158.240112	14137.810547	4500.979980	25.753855
602.438843	1142.311401	13700.911133	4448.643066	26.327230
602.778015	1115.005249	14008.106445	4389.479492	25.397102
603.117065	1133.209351	14506.445313	4662.541992	26.391012
603.456055	1160.515625	14658.905273	4646.613281	25.826027
603.794983	1055.841675	15182.274414	4785.420410	26.401419
604.133850	1115.005249	15739.777344	4801.349121	25.206161
604.472778	1110.454102	16188.054688	4985.666016	25.701780
604.811584	1105.903076	16713.701172	5217.769043	26.344948
605.150330	1112.729614	17410.009766	5124.472656	24.616028
605.489075	1128.658325	17257.548828	5117.646484	24.731945
605.827698	1128.658325	17321.263672	5261.003906	25.519955
606.166382	1071.770264	17027.722656	5263.279785	26.269255
606.504883	1165.066650	16841.128906	5226.871094	25.910872
606.843445	1135.484863	16194.881836	5074.411621	26.155941
607.181946	1103.627563	15719.297852	4915.125000	26.078159
607.520386	1158.240112	15391.623047	4830.930664	25.803356
607.858826	1108.178589	14891.007813	4712.603516	26.151560
608.197083	1194.648438	14595.190430	4446.367676	24.265579
608.535461	1121.831787	14401.771484	4503.255859	25.462646
608.873718	1074.045776	14174.218750	4539.664063	26.454752
609.211914	1096.801025	14356.260742	4548.766113	26.033979
609.550171	1078.596802	14909.211914	4585.174316	25.353735
609.888245	1119.556274	15207.305664	4626.133789	24.890972
610.226318	1160.515625	15566.837891	4760.389648	24.988153
610.564392	1076.321289	15755.706055	4812.726563	25.453419
610.902344	1051.290649	15500.847656	4855.961426	26.330709
611.240295	1076.321289	15268.744141	4762.665039	25.974028
611.578247	1115.005249	15082.152344	4537.388672	24.503094
611.916138	1069.494751	14825.017578	4544.214844	25.260548
612.253845	1133.209351	14099.126953	4309.836426	24.499823
612.591675	1140.035889	13907.983398	4268.876953	24.505436
612.929382	1067.219238	13787.380859	4223.366699	24.812164
613.267090	1083.147949	13373.235352	4080.008789	24.384373
613.604736	1135.484863	13311.796875	4054.978027	23.976826
613.942261	1099.076538	13307.246094	3982.161377	23.616030
614.279785	1178.719727	13109.275391	3959.406250	23.307268
614.617310	1133.209351	12690.579102	3984.437012	24.670210
614.954712	1149.138062	12440.272461	4036.773926	25.574362
615.292175	1183.270874	12485.782227	3886.589600	23.917860
615.629517	1178.719727	12317.394531	3961.681641	24.984676
615.966797	1124.107300	12260.505859	3916.171387	25.071516
616.304138	1142.311401	12244.577148	3884.313965	24.697683
616.641296	1142.311401	12346.975586	3884.313965	24.471973
616.978516	1171.893188	12112.597656	3816.048340	24.168055
617.315552	1039.912964	12267.333008	3845.630127	24.989866
617.652771	1092.250000	12399.312500	3866.109863	24.532101
617.989685	1080.872437	12340.149414	3795.568604	24.110750
618.326721	1155.964600	12331.046875	3806.946289	23.722258
618.663696	1101.352051	12613.211914	3775.089111	23.225935
619.000549	1128.658325	12415.241211	3825.150391	23.891130
619.337463	1119.556274	12544.946289	3750.058350	23.023302
619.674194	1128.658325	12397.037109	3770.538086	23.445074
620.010986	1121.831787	12101.219727	3754.609375	23.979275
620.347778	1094.525513	11846.361328	3729.578613	24.507936
620.684387	1092.250000	12060.259766	3786.466553	24.564316
621.020996	1199.199463	12071.637695	3765.986816	23.608204
621.357605	1158.240112	11948.759766	3547.536865	22.142557
621.694214	1064.943726	11928.280273	3649.935303	23.795559
622.030579	1144.586914	11896.422852	3627.180176	23.089947
622.367065	1133.209351	11844.085938	3552.087891	22.583384
622.703430	1155.964600	11857.739258	3608.976074	22.921539
623.039795	1110.454102	11646.115234	3722.751953	24.794817
623.376160	1087.698975	11618.809570	3577.118652	23.638720
623.712402	1085.423462	11737.136719	3499.750977	22.666098
624.048645	1121.831787	11664.319336	3706.823486	24.519753
624.384766	1080.872437	11575.574219	3552.087891	23.547266
624.720886	1171.893188	11730.309570	3643.108887	23.405176
625.057007	1117.280762	11432.216797	3542.985840	23.516434
625.392944	1137.760376	11673.421875	3497.475586	22.397411
625.729004	1076.321289	11611.982422	3697.721191	24.881208
626.064941	1101.352051	11980.617188	3479.271240	21.857349
626.400818	1069.494751	12299.189453	3602.149414	22.553194
626.736633	1140.035889	12301.465820	3763.711426	23.506626
627.072449	1128.658325	12635.966797	3861.558838	23.749258
627.408264	1085.423462	12510.813477	3847.905762	24.178453
627.743896	1069.494751	12706.507813	3961.681641	24.853346
628.079590	1083.147949	12642.793945	3838.803711	23.838581
628.415161	1080.872437	12736.089844	3841.079102	23.682154
628.750793	1105.903076	12544.946289	3913.895752	24.547443
629.086365	1115.005249	12246.852539	3759.160400	23.753067
629.421753	1087.698975	12412.965820	3747.782715	23.488045
629.757263	1094.525513	12037.504883	3668.139648	23.518406
630.092651	1101.352051	11951.035156	3545.261475	22.525167
630.427917	1096.801025	11750.789063	3558.914551	23.109783
630.763184	1124.107300	11388.981445	3542.985840	23.564619
631.098511	1215.128052	11350.297852	3508.853027	22.631344
631.433716	1128.658325	11125.021484	3374.597412	22.467560
631.768799	1074.045776	10861.060547	3338.188965	23.134153
632.103943	1117.280762	10904.295898	3417.832275	23.506159
632.438965	1176.444214	10972.561523	3306.331787	21.742163
632.773987	1176.444214	10922.500000	3390.525879	22.717718
633.109070	1206.026001	10735.907227	3331.362549	22.301815
633.443848	1092.250000	10849.683594	3194.831299	21.548508
633.778870	1135.484863	10669.916992	3213.035400	21.789978
634.113708	1149.138062	10619.855469	3297.229736	22.681404
634.448425	1167.342163	10599.375977	3242.617188	22.002411
634.783264	1128.658325	10908.846680	3411.005615	23.336433
635.117859	1146.862427	10724.529297	3251.719238	21.976719
635.452576	1108.178589	10904.295898	3279.025391	22.160276
635.787170	1083.147949	10902.020508	3240.341553	21.969870
636.121704	1069.494751	10405.957031	3217.586426	23.007557
636.456177	1135.484863	10299.006836	3053.749023	20.933701
636.790588	1140.035889	10005.464844	3081.055176	21.894251
637.125122	1089.974487	10314.935547	3213.035400	23.014309
637.459412	1169.617676	10089.659180	3119.739014	21.862246
637.793762	1140.035889	9893.964844	3037.820313	21.679232
638.128052	1089.974487	9818.872070	3044.646729	22.393118
638.462280	1133.209351	9843.903320	2953.625977	20.898640
638.796509	1149.138062	9727.851563	2994.585449	21.511936
639.130615	1112.729614	9554.912109	2992.309814	22.264151
639.464722	1130.933838	9573.116211	2912.666504	21.105118
639.798767	1124.107300	9550.360352	2899.013428	21.064003
640.132751	1174.168701	9322.808594	2958.177002	21.893326
640.466736	1110.454102	9381.972656	2926.319824	21.953234
640.800598	1124.107300	9554.912109	2892.187012	20.971661
641.134521	1176.444214	9115.736328	2896.738037	21.668100
641.468262	1085.423462	9193.104492	2771.584229	20.797077
641.802063	1074.045776	9081.603516	2871.707275	22.449560
642.135803	1149.138062	8908.664063	2803.441650	21.319649
642.469421	1112.729614	9115.736328	2798.890625	21.069094
642.803101	1155.964600	9017.888672	2794.339600	20.839365
643.136658	1162.791138	8863.153320	2773.859863	20.921986
643.470215	1140.035889	8920.041992	2810.268311	21.468267
643.803711	1128.658325	8872.255859	2716.971924	20.511314
644.137085	1128.658325	8958.725586	2823.921387	21.650682
644.470581	1140.035889	8635.601563	2707.869873	20.916821
644.803833	1135.484863	8706.142578	2787.512939	21.821461
645.137207	1121.831787	8915.490234	2746.553711	20.846718
645.470459	1151.413574	8612.846680	2723.798340	21.073496
645.803589	1169.617676	8667.458984	2751.104736	21.092566
646.136780	1174.168701	8731.172852	2760.206787	20.987658
646.469849	1151.413574	8831.295898	2703.318604	20.207407
646.802979	1126.382813	8712.968750	2714.696289	20.935814
647.135986	1126.382813	8619.672852	2744.278076	21.591253
647.468994	1155.964600	8940.521484	2776.135498	20.812630
647.801941	1126.382813	8858.602539	2671.461426	19.982342
648.134766	1108.178589	8967.827148	2698.767578	20.237406
648.467651	1158.240112	8817.643555	2730.625000	20.528816
648.800354	1153.689087	8947.347656	2714.696289	20.029196
649.133179	1180.995239	8778.958984	2748.829102	20.634922
649.465881	1128.658325	8813.091797	2621.399902	19.425526
649.798462	1089.974487	8920.041992	2637.328613	19.761696
650.131104	1119.556274	8833.571289	2689.665527	20.353983
650.463623	1103.627563	8765.305664	2664.634766	20.374220
650.796143	1133.209351	8833.571289	2730.625000	20.744682
651.128662	1089.974487	8765.305664	2546.307861	18.974209
651.461060	1108.178589	8738.000000	2710.145264	20.996122
651.793396	1112.729614	8904.113281	2680.563477	20.122662
652.125732	1105.903076	8744.826172	2680.563477	20.613644
652.458008	1085.423462	8788.061523	2696.492188	20.915804
652.790222	1201.474976	8983.755859	2671.461426	18.888889
653.122437	1119.556274	8633.326172	2728.349365	21.411263
653.454529	1117.280762	8608.294922	2698.767578	21.111786
653.786621	1103.627563	8562.785156	2662.359375	20.896887
654.118713	1117.280762	8626.499023	2707.869873	21.181820
654.450623	1144.586914	8512.723633	2616.848877	19.981468
654.782654	1146.862427	8437.630859	2662.359375	20.786518
655.114502	1115.005249	8508.171875	2682.839111	21.206528
655.446350	1146.862427	8410.325195	2628.226563	20.394737
655.778198	1112.729614	8526.375977	2514.450439	18.907307
656.109863	1130.933838	8285.170898	2514.450439	19.338423
656.441650	1060.392700	8405.773438	2589.542725	20.817844
656.773254	1124.107300	8155.466797	2600.920166	21.003235
657.104919	1133.209351	8212.354492	2614.573486	20.925749
657.436462	1105.903076	8144.088867	2496.246338	19.754286
657.767944	1078.596802	8487.692383	2562.236328	20.024570
658.099548	1078.596802	8626.499023	2528.103516	19.204100
658.430908	1135.484863	8428.529297	2628.226563	20.468019
658.762268	1064.943726	8740.275391	2587.267090	19.833975
659.093628	1137.760376	8701.591797	2587.267090	19.163656
659.424927	1096.801025	9143.042969	2701.043213	19.937782
659.756226	1126.382813	9682.340820	2821.645752	19.813829
660.087341	1112.729614	9721.024414	2828.472412	19.931273
660.418518	1176.444214	9889.413086	2910.391113	19.900759
660.749573	1105.903076	9791.566406	2833.023438	19.884727
661.080627	1165.066650	9641.381836	2776.135498	19.006712
661.411621	1060.392700	9509.401367	2587.267090	18.071640
661.742554	1051.290649	9529.880859	2762.482178	20.182501
662.073547	1160.515625	9179.451172	2646.430664	18.530079
662.404297	1101.352051	9006.511719	2632.777588	19.372480
662.735229	1142.311401	8728.897461	2612.297852	19.376125
663.065979	1067.219238	8612.846680	2628.226563	20.687574
663.396667	1160.515625	8505.896484	2496.246338	18.184635
663.727417	1128.658325	8346.610352	2443.909424	18.221943
664.057922	1151.413574	8134.986816	2484.868652	19.094166
664.388611	1155.964600	8107.680664	2443.909424	18.527006
664.719116	1183.270874	7941.567383	2430.256104	18.451178
665.049622	1146.862427	7805.036133	2412.052002	19.002050
665.380005	1094.525513	7734.495117	2548.583252	21.898560
665.710388	1133.209351	7741.321777	2471.215576	20.247934
666.040771	1153.689087	7780.005859	2371.092773	18.372253
666.371033	1119.556274	7836.893555	2277.796387	17.242548
666.701294	1140.035889	7663.954102	2466.664551	20.334846
667.031555	1115.005249	7707.188965	2361.990479	18.916119
667.361633	1180.995239	7695.811523	2414.327637	18.931192
667.691772	1101.352051	7613.892578	2427.980713	20.370371
668.021790	1160.515625	7704.913574	2373.368164	18.532682
668.351807	1108.178589	7627.545898	2373.368164	19.406631
668.681763	1105.903076	7577.484375	2257.316650	17.791843
669.011719	1083.147949	7725.393066	2375.643799	19.458719
669.341614	1089.974487	7629.821289	2325.582275	18.893528
669.671387	1142.311401	7622.994629	2293.724854	17.766853
670.001221	1060.392700	7766.352539	2389.296875	19.816763
670.330933	1133.209351	7780.005859	2425.705078	19.445395
670.660583	1055.841675	7907.434570	2423.429688	19.960148
670.990173	1119.556274	7711.740234	2398.398926	19.399378
671.319763	1105.903076	7588.861816	2250.489990	17.655315
671.649292	1162.791138	7597.963867	2437.082764	19.801979
671.978821	1146.862427	7295.319824	2373.368164	19.948187
672.308289	1124.107300	7415.922363	2357.439453	19.602169
672.637695	1149.138062	7370.412109	2284.622803	18.251644
672.966980	1185.546387	7261.187012	2293.724854	18.239697
673.296326	1206.026001	7224.778320	2250.489990	17.353497
673.625610	1140.035889	7329.452637	2207.255127	17.242645
673.954773	1155.964600	7347.656738	2264.143311	17.897833
674.283936	1115.005249	7106.451660	2350.613037	20.622864
674.613037	1069.494751	7286.217773	2134.438477	17.130306
674.942078	1162.791138	7186.094727	2286.898438	18.662638
675.271118	1158.240112	7154.237305	2104.856689	15.787476
675.600098	1130.933838	7085.971680	2050.244141	15.437522
675.928955	1096.801025	7161.063965	2277.796387	19.474674
676.257813	1108.178589	6963.093750	2293.724854	20.248735
676.586670	1049.015137	6974.471191	2200.428711	19.431644
676.915466	1126.382813	6965.369141	2207.255127	18.511301
677.244141	1126.382813	6985.848633	2309.653564	20.194174
677.572876	1151.413574	6833.389160	2109.407715	16.860229
677.901489	1121.831787	6676.377930	2207.255127	19.541172
678.230042	1051.290649	6988.124512	2255.041016	20.275965
678.558594	1140.035889	7017.706055	2264.143311	19.125051
678.887085	1210.577026	6967.644531	2261.867676	18.260872
679.215515	1092.250000	6953.991699	2223.183838	19.293478
679.543945	1155.964600	7076.869629	2168.571289	17.102228
679.872253	1142.311401	7288.493164	2298.276123	18.807852
680.200562	1112.729614	7347.656738	2284.622803	18.795620
680.528809	1128.658325	7538.800293	2255.041016	17.571884
680.856995	1137.760376	7511.494141	2318.755615	18.529095
681.185120	1092.250000	7597.963867	2305.102539	18.642881
681.513306	1115.005249	7657.127441	2311.929199	18.295652
681.841309	1069.494751	7757.250488	2311.929199	18.577747
682.169373	1085.423462	7845.995605	2357.439453	18.815212
682.497314	1112.729614	7725.393066	2339.235352	18.547832
682.825134	1124.107300	7434.126465	2339.235352	19.257122
683.153076	1126.382813	7620.719238	2284.622803	17.834616
683.480896	1099.076538	7406.820313	2291.449463	18.903318
683.808655	1051.290649	7409.095703	2327.857666	20.078737
684.136414	1140.035889	7306.697266	2316.480225	19.077494
684.464050	1046.739624	7254.360352	2296.000488	20.124634
684.791626	1112.729614	7097.349609	2173.122314	17.718630
685.119263	1105.903076	6837.939941	2241.387939	19.809446
685.446838	1121.831787	6853.868652	2211.806152	19.015480
685.774292	1196.923950	6553.500000	2134.438477	17.502123
686.101685	1124.107300	6599.010254	2104.856689	17.913549
686.429077	1155.964600	6614.938965	2104.856689	17.382240
686.756348	1124.107300	6539.846680	2107.132324	18.151262
687.083679	1094.525513	6492.061035	2095.754639	18.549746
687.410950	1078.596802	6635.418457	2282.347412	21.662573
687.738159	1190.097412	6655.898438	2123.060791	17.069107
688.065308	1085.423462	6589.908203	2045.693237	17.445225
688.392395	1044.463989	6783.327637	2107.132324	18.517052
688.719421	1042.188477	6676.377930	2123.060791	19.184168
689.046448	1190.097412	6837.939941	2086.652588	15.874294
689.373413	1133.209351	6767.398926	2066.172852	16.558966
689.700317	1149.138062	6639.969727	2070.723877	16.784084
690.027100	1137.760376	6662.725098	2182.224365	18.904446
690.353943	1133.209351	6626.316406	2120.785400	17.978460
690.680725	1183.270874	6403.315430	2025.213501	16.129032
691.007446	1055.841675	6378.284668	2061.621826	18.896965
691.334106	1096.801025	6353.253906	2047.968750	18.095238
691.660645	1162.791138	6146.181641	2068.448486	18.173517
691.987244	1117.280762	6077.916016	2018.386963	18.165136
692.313721	1124.107300	5984.619629	2018.386963	18.398876
692.640259	1144.586914	6109.773438	2007.009399	17.369387
692.966675	1103.627563	6023.303711	1995.631714	18.131359
693.293030	1092.250000	5838.986328	2004.733887	19.223394
693.619324	1130.933838	5989.170898	1954.672363	16.955502
693.945618	1103.627563	5829.884277	2047.968750	19.980742
694.271851	1101.352051	5709.281738	2032.040039	20.197531
694.598083	1171.893188	5757.067871	1966.049927	17.320097
694.924194	1115.005249	5920.905273	1988.805176	18.181816
695.250244	1115.005249	5679.699707	1922.815063	17.696909
695.576294	1121.831787	5752.516602	1900.059814	16.805897
695.902283	1174.168701	5713.832520	1993.356201	18.045113
696.228210	1049.015137	5864.017090	1997.907227	19.706993
696.554138	1144.586914	5784.374023	1991.080688	18.244238
696.879944	1130.933838	5727.485840	1979.703125	18.465347
697.205750	1169.617676	5707.006348	1991.080688	18.104313
697.531433	1183.270874	5889.047852	2025.213501	17.891682
697.857178	1126.382813	5882.221191	1934.192627	16.985645
698.182739	1137.760376	6068.813965	2038.866699	18.274113
698.508423	1126.382813	6360.080566	2054.795166	17.739128
698.833984	1171.893188	6328.223145	2100.305664	18.005295
699.159485	1115.005249	6726.439453	2200.428711	19.343067
699.484924	1149.138062	7045.012207	2177.673340	17.445002
699.810303	1158.240112	7060.940918	2234.561523	18.234388
700.135681	1174.168701	7302.146484	2277.796387	18.009657
700.460999	1135.484863	7447.779785	2245.938965	17.591923
700.786255	1151.413574	7065.492188	2129.887451	16.544825
701.111450	1137.760376	6869.797363	2214.081787	18.777292
701.436646	1101.352051	6735.541504	2088.927979	17.528271
701.761719	1108.178589	6539.846680	2177.673340	19.689987
702.086792	1121.831787	6385.111328	2184.500000	20.190229
702.411865	1094.525513	6084.742676	2045.693237	19.060648
702.736816	1085.423462	5848.088379	2004.733887	19.302437
703.061646	1083.147949	5788.924805	2025.213501	20.019342
703.386536	1112.729614	5743.414551	1925.090576	17.542997
703.711365	1099.076538	5458.974609	2043.417725	21.659708
704.036194	1133.209351	5420.290527	1984.254150	19.851381
704.360901	1094.525513	5324.718750	1852.273926	17.912855
704.685547	1044.463989	5377.055664	1900.059814	19.747898
705.010132	1167.342163	5235.973145	1865.927002	17.170023
705.334717	1119.556274	5179.085449	1745.324463	15.414797
705.659302	1103.627563	5135.850586	1806.763550	17.437923
705.983765	1078.596802	5110.819824	1893.233276	20.203159
706.308228	1171.893188	5076.687012	1836.345337	17.016317
706.632568	1076.321289	5110.819824	1847.722900	19.120136
706.956909	1201.474976	4906.022949	1806.763550	16.339067
707.281189	1119.556274	4946.982422	1763.528564	16.825205
707.605408	1144.586914	5222.320313	1845.447388	17.187502
707.929626	1140.035889	5049.380859	1870.478149	18.684519
708.253784	1140.035889	5038.002930	1911.437500	19.789845
708.577820	1192.372925	5028.900879	1784.008301	15.421115
708.901855	1080.872437	4987.941406	1840.896362	19.452536
709.225830	1162.791138	5035.727539	1868.202637	18.213867
709.549805	1124.107300	5142.677246	1861.375977	18.346544
709.873718	1128.658325	4967.461914	1836.345337	18.435093
710.197510	1128.658325	5090.339844	1840.896362	17.978174
710.521362	1171.893188	5181.360840	1856.824951	17.082859
710.845093	1062.668213	5229.146973	1868.202637	19.333698
711.168701	1142.311401	5217.769043	1870.478149	17.867117
711.492432	1212.852539	5254.177734	1979.703125	18.975225
711.816040	1126.382813	5468.076660	1945.570313	18.867924
712.139587	1105.903076	5468.076660	1890.957764	17.996868
712.463074	1117.280762	5452.147949	1925.090576	18.635168
712.786499	1137.760376	5454.423340	1884.131226	17.290459
713.109924	1137.760376	5311.065430	1950.121338	19.465649
713.433350	1158.240112	5367.953613	1843.171875	16.270271
713.756592	1087.698975	5388.433105	1893.233276	18.730158
714.079834	1062.668213	5290.585938	1945.570313	20.882669
714.403015	1055.841675	5249.626465	1950.121338	21.323929
714.726196	1094.525513	5292.861328	1938.743774	20.108402
715.049255	1083.147949	5190.462891	1922.815063	20.443213
715.372375	1105.903076	5081.237793	1784.008301	17.057814
715.695435	1133.209351	5108.544434	1790.834839	16.542643
716.018311	1092.250000	5076.687012	1836.345337	18.675043
716.341248	1099.076538	5022.074219	1824.967651	18.503481
716.664063	1119.556274	5092.615723	1836.345337	18.041237
716.987000	1146.862427	5158.605469	1909.161987	19.001703
717.309692	1149.138062	5060.758301	1884.131226	18.789993
717.632385	1117.280762	4915.125000	1840.896362	19.053326
717.955078	1108.178589	4944.706543	1840.896362	19.098461
718.277649	1174.168701	4926.502441	1852.273926	18.071560
718.600220	1049.015137	4855.961426	1895.508789	22.235502
718.922791	1115.005249	4787.695801	1822.692139	19.268896
719.245300	1165.066650	4767.216309	1868.202637	19.519899
719.567688	1092.250000	4576.072266	1756.702026	19.072500
719.890015	1087.698975	4630.685059	1749.875488	18.689785
720.212341	1140.035889	4569.245605	1745.324463	17.650965
720.534607	1178.719727	4487.327148	1752.151001	17.331499
720.856873	1117.280762	4439.541016	1745.324463	18.904110
721.179016	1167.342163	4421.336914	1777.181763	18.741261
721.501160	1076.321289	4318.938477	1711.191650	19.578949
721.823242	1135.484863	4273.428223	1679.334351	17.331400
722.145264	1146.862427	4246.121582	1649.752563	16.226139
722.467224	1162.791138	4205.162598	1722.569214	18.399399
722.789185	1149.138062	4241.570801	1697.538574	17.733629
723.111023	1140.035889	4186.958496	1688.436401	17.998505
723.432861	1137.760376	4134.621094	1745.324463	20.273350
723.754578	1151.413574	4243.846191	1672.507813	16.850626
724.076294	1119.556274	4280.254395	1686.160889	17.926565
724.397949	1078.596802	4241.570801	1686.160889	19.208633
724.719666	1174.168701	4095.937500	1679.334351	17.289721
725.041260	1119.556274	4120.968262	1733.946899	20.470053
725.362732	1055.841675	4086.835449	1626.997314	18.843842
725.684265	1130.933838	4227.917480	1697.538574	18.295374
726.005676	1149.138062	4091.386475	1688.436401	18.329462
726.327087	1092.250000	4089.110840	1629.272949	17.919516
726.648438	1069.494751	4102.764160	1768.079712	23.030758
726.969666	1117.280762	4091.386475	1624.721802	17.061970
727.290894	1119.556274	4091.386475	1799.937012	22.894335
727.612061	1194.648438	4111.866211	1708.916138	17.628704
727.933228	1137.760376	4145.999023	1740.773438	20.045385
728.254395	1119.556274	4287.081055	1777.181763	20.761494
728.575378	1124.107300	4280.254395	1665.681274	17.159340
728.896301	1192.372925	4380.377441	1765.804199	17.987154
729.217285	1180.995239	4391.755371	1702.089600	16.229626
729.538147	1146.862427	4355.346680	1820.416626	20.992908
729.858948	1155.964600	4430.438965	1749.875488	18.137594
730.179810	1151.413574	4407.683594	1827.243164	20.754715
730.500549	1153.689087	4225.642090	1695.262939	17.629625
730.821228	1117.280762	4305.285156	1861.375977	23.340469
731.141846	1176.444214	4371.275391	1740.773438	17.663820
731.462402	1137.760376	4425.888184	1729.395752	17.993076
731.782898	1096.801025	4532.837402	1788.559326	20.132450
732.103455	1158.240112	4430.438965	1768.079712	18.636997
732.423889	1105.903076	4412.234863	1772.630737	20.165176
732.744263	1096.801025	4473.673828	1799.937012	20.822105
733.064636	1140.035889	4334.867188	1745.324463	18.945869
733.384888	1128.658325	4403.132813	1799.937012	20.500347
733.705200	1117.280762	4337.142578	1704.365112	18.233215
734.025330	1096.801025	4478.225098	1836.345337	21.870794
734.345520	1167.342163	4396.306152	1827.243164	20.436928
734.665527	1089.974487	4428.163574	1856.824951	22.972052
734.985596	1085.423462	4296.183105	1770.355225	21.332390
735.305542	1133.209351	4205.162598	1779.457275	21.037037
735.625549	1103.627563	4271.152344	1834.069824	23.060349
735.945435	1105.903076	4293.907715	1743.048950	19.985725
736.265259	1190.097412	4123.243652	1797.661377	20.713730
736.585083	1135.484863	4066.355713	1740.773438	20.652174
736.904785	1112.729614	3982.161377	1733.946899	21.649488
737.224426	1112.729614	4061.804688	1786.283813	22.839506
737.544128	1135.484863	4025.396240	1711.191650	19.921261
737.863708	1153.689087	3907.069336	1665.681274	18.595039
738.183289	1121.831787	4023.120850	1620.170776	17.176468
738.502808	1094.525513	4016.294189	1581.486938	16.666666
738.822205	1074.045776	3959.406250	1711.191650	22.082022
739.141541	1142.311401	4029.947266	1720.293701	20.015762
739.460938	1112.729614	4027.671875	1827.243164	24.512098
739.780212	1142.311401	4066.355713	1715.742676	19.610895
740.099426	1128.658325	4277.979004	1761.253052	20.086704
740.418640	1026.259888	4020.845215	1795.385864	25.683887
740.737793	1078.596802	4086.835449	1733.946899	21.785175
741.056885	1130.933838	4123.243652	1763.528564	21.140682
741.375977	1105.903076	4100.488281	1722.569214	20.592707
741.694946	1060.392700	4039.049316	1747.599976	23.071047
742.013855	1140.035889	4080.008789	1795.385864	22.291021
742.332703	1146.862427	3922.997803	1781.732788	22.868856
742.651550	1119.556274	3909.344727	1688.436401	20.391514
742.970398	1162.791138	3913.895752	1811.314575	23.573202
743.289124	1117.280762	3831.977051	1690.711914	21.123217
743.607788	1108.178589	3825.150391	1702.089600	21.859301
743.926453	1119.556274	3802.395264	1665.681274	20.356236
744.245056	1128.658325	3777.364502	1692.987427	21.305841
744.563599	1144.586914	3884.313965	1738.497925	21.677744
744.882141	1108.178589	3715.925537	1672.507813	21.640490
745.200500	1108.178589	3820.599365	1743.048950	23.406042
745.518860	1137.760376	3690.894775	1834.069824	27.272732
745.837219	1110.454102	3747.782715	1715.742676	22.950821
746.155518	1094.525513	3608.976074	1658.854614	22.443436
746.473755	1137.760376	3483.822266	1713.467163	24.539282
746.791992	1110.454102	3643.108887	1686.160889	22.731356
747.110107	1076.321289	3645.384277	1665.681274	22.940659
747.428162	1069.494751	3570.292236	1720.293701	26.023659
747.746216	1183.270874	3517.955078	1722.569214	23.099415
748.064148	1183.270874	3520.230713	1645.201538	19.766306
748.382080	1142.311401	3606.700439	1677.058838	21.698984
748.700073	1178.719727	3581.669678	1674.783325	20.643942
749.017822	1110.454102	3442.863037	1706.640625	25.560978
749.335632	1174.168701	3581.669678	1720.293701	22.684311
749.653320	1137.760376	3595.322754	1704.365112	23.055557
749.971008	1112.729614	3549.812500	1743.048950	25.863680
750.288696	1080.872437	3718.200928	1672.507813	22.433130
750.606262	1042.188477	3620.353516	1683.885376	24.889675
750.923828	1101.352051	3643.108887	1692.987427	23.276632
751.241272	1119.556274	3636.282227	1615.619751	19.710667
751.558716	1094.525513	3529.332764	1777.181763	28.037386
751.876038	1028.535400	3636.282227	1654.303589	23.996508
752.193481	1089.974487	3561.189941	1731.671387	25.966854
752.510681	1108.178589	3399.628174	1699.814087	25.819265
752.827942	1064.943726	3442.863037	1711.191650	27.177032
753.145081	1108.178589	3527.057129	1674.783325	23.424274
753.462219	1074.045776	3497.475586	1665.681274	24.413149
753.779297	1146.862427	3513.404053	1692.987427	23.076925
754.096375	1185.546387	3504.302002	1708.916138	22.571148
754.413330	1158.240112	3542.985840	1743.048950	24.522902
754.730286	1144.586914	3568.016602	1638.375000	20.375589
755.047119	1108.178589	3490.648926	1652.028076	22.827126
755.363892	1165.066650	3508.853027	1699.814087	22.815536
755.680725	1105.903076	3524.781738	1663.405762	23.047981
755.997498	1160.515625	3433.760986	1731.671387	25.125126
756.314148	1167.342163	3479.271240	1686.160889	22.440943
756.630737	1140.035889	3490.648926	1711.191650	24.298162
756.947327	1119.556274	3395.077148	1656.579102	23.599995
757.263855	1117.280762	3385.974854	1711.191650	26.178535
757.580261	1119.556274	3422.383301	1692.987427	24.901180
757.896729	1089.974487	3370.046387	1754.426514	29.141716
758.213074	1133.209351	3515.679688	1715.742676	24.450813
758.529419	1105.903076	3467.893799	1699.814087	25.144510
758.845642	1092.250000	3431.485352	1656.579102	24.124512
759.161865	1108.178589	3481.546875	1715.742676	25.599236
759.478149	1153.689087	3447.414063	1695.262939	23.611105
759.794189	1149.138062	3504.302002	1743.048950	25.217390
760.110229	1142.311401	3488.373291	1706.640625	24.054317
760.426270	1074.045776	3508.853027	1733.946899	27.102808
760.742249	1117.280762	3520.230713	1768.079712	27.083334
761.058105	1108.178589	3554.363525	1729.395752	25.395346
761.374023	1171.893188	3624.904541	1802.212524	25.695738
761.689819	1058.117188	3668.139648	1754.426514	26.678289
762.005554	1165.066650	3565.741211	1781.732788	25.687202
762.321289	1135.484863	3595.322754	1772.630737	25.901945
762.636902	1142.311401	3661.312988	1713.467163	22.673895
762.952515	1117.280762	3472.444824	1774.906250	27.922705
763.268127	1165.066650	3718.200928	1672.507813	19.875225
763.583618	1080.872437	3645.384277	1761.253052	26.530611
763.899048	1124.107300	3941.202148	1881.855713	26.898222
764.214478	1155.964600	4280.254395	1966.049927	25.928623
764.529785	1112.729614	4585.174316	1986.529663	25.163828
764.845093	1108.178589	4869.614746	2045.693237	24.924381
765.160400	1135.484863	4997.043457	2127.612061	25.692404
765.475586	1037.637451	4935.604492	2255.041016	31.231756
765.790771	1094.525513	4794.522461	2102.581299	27.244772
766.105835	1103.627563	4673.919922	2088.927979	27.597191
766.420837	1105.903076	4457.745117	2047.968750	28.105909
766.735840	1160.515625	4259.774902	2007.009399	27.312777
767.050842	1115.005249	4036.773926	1972.876587	29.361372
767.365662	1087.698975	3836.528076	1913.713013	30.049669
767.680542	1112.729614	3911.620361	1788.559326	24.146343
767.995300	1087.698975	3870.660889	1947.845825	30.907604
768.309998	1124.107300	3768.262451	1813.590088	26.075729
768.624817	1137.760376	3656.761963	1872.753662	29.177961
768.939392	1058.117188	3627.180176	1797.661377	28.786533
769.254028	1110.454102	3674.966064	1777.181763	25.998228
769.568481	1130.933838	3465.618164	1713.467163	24.951267
769.882935	1076.321289	3488.373291	1893.233276	33.867928
770.197388	1176.444214	3385.974854	1831.794189	29.660143
770.511841	1176.444214	3417.832275	1840.896362	29.644670
770.826172	1165.066650	3294.954102	1758.977539	27.884613
771.140442	1087.698975	3276.750000	1670.232300	26.611227
771.454651	1117.280762	3372.321777	1690.711914	25.428858
771.768860	1115.005249	3244.892578	1806.763550	32.478634
772.082886	1130.933838	3247.168213	1813.590088	32.258064
772.397034	1115.005249	3192.555664	1761.253052	31.106241
772.711060	1151.413574	3128.841064	1718.018188	28.653624
773.025024	1160.515625	3183.453613	1804.488037	31.833523
773.338928	1151.413574	3192.555664	1720.293701	27.870678
773.652771	1178.719727	3167.524902	1838.620850	33.180782
773.966614	1137.760376	3094.708252	1845.447388	36.162792
774.280457	1117.280762	3137.943115	1777.181763	32.657658
774.594116	1128.658325	3078.779541	1617.895264	25.087515
774.907776	1087.698975	3019.616211	1765.804199	35.100117
775.221375	1074.045776	3094.708252	1752.151001	33.558559
775.534912	1149.138062	2999.136475	1677.058838	28.536283
775.848450	1074.045776	3090.157227	1679.334351	30.022575
776.161926	1119.556274	3067.402100	1724.844727	31.074762
776.475342	1146.862427	2971.830078	1758.977539	33.541149
776.788696	1135.484863	3126.565674	1777.181763	32.228573
777.101990	1169.617676	2930.870850	1747.599976	32.816536
777.415283	1105.903076	2924.044189	1708.916138	33.166462
777.728516	1144.586914	2899.013428	1758.977539	35.019455
778.041626	1151.413574	2937.697266	1608.793213	25.605095
778.354736	1133.209351	2935.421875	1686.160889	30.681816
778.667725	1151.413574	3005.962891	1820.416626	36.073620
778.980774	1155.964600	2935.421875	1738.497925	32.736572
779.293640	1126.382813	2880.809326	1733.946899	34.630352
779.606567	1069.494751	2755.655762	1640.650513	33.873146
779.919434	1160.515625	2844.401123	1752.151001	35.135132
780.232239	1171.893188	2878.533936	1806.763550	37.200001
780.544983	1162.791138	2921.768799	1809.039063	36.739975
780.857666	1201.474976	3008.238525	1731.671387	29.345091
781.170227	1169.617676	2792.063965	1733.946899	34.782612
781.482849	1140.035889	2855.778564	1763.528564	36.339520
781.795410	1117.280762	2819.370361	1756.702026	37.566841
782.107910	1126.382813	2889.911377	1738.497925	34.709679
782.420288	1135.484863	2805.717041	1702.089600	33.923710
782.732666	1108.178589	2776.135498	1711.191650	36.152798
783.044983	1196.923950	2712.420898	1697.538574	33.033035
783.357300	1153.689087	2716.971924	1749.875488	38.136822
783.669495	1144.586914	2767.033203	1663.405762	31.977568
783.981689	1160.515625	2785.237549	1743.048950	35.854340
784.293762	1140.035889	2735.176025	1743.048950	37.803139
784.605835	1126.382813	2732.900391	1686.160889	34.844193
784.917908	1121.831787	2632.777588	1733.946899	40.512051
785.229858	1151.413574	2671.461426	1720.293701	37.425144
785.541748	1092.250000	2696.492188	1743.048950	40.567375
785.853577	1242.434326	2591.818115	1692.987427	33.389545
786.165405	1105.903076	2628.226563	1724.844727	40.657696
786.477173	1137.760376	2707.869873	1656.579102	33.043472
786.788879	1049.015137	2641.879639	1645.201538	37.428570
787.100525	1103.627563	2630.501953	1592.864502	32.041729
787.412109	1035.361938	2621.399902	1688.436401	41.176472
787.723694	1064.943726	2600.920166	1631.548462	36.888893
788.035156	998.953613	2605.471436	1692.987427	43.201126
788.346558	1023.984375	2610.022461	1697.538574	42.467720
788.658081	1092.250000	2632.777588	1686.160889	38.552433
788.969360	1099.076538	2653.257324	1815.865601	46.120056
789.280640	1119.556274	2773.859863	1781.732788	40.027508
789.591919	1176.444214	2769.308838	1865.927002	43.285713
789.903076	1158.240112	2848.952148	1809.039063	38.492596
790.214172	1121.831787	2924.044189	1772.630737	36.111115
790.525269	1117.280762	2798.890625	1768.079712	38.700947
790.836365	1124.107300	2744.278076	1777.181763	40.308990
791.147339	1126.382813	2728.349365	1738.497925	38.210232
791.458191	1112.729614	2737.451416	1772.630737	40.616253
791.769104	1103.627563	2657.808350	1745.324463	41.288433
792.079895	1149.138062	2703.318604	1620.170776	30.307465
792.390686	1124.107300	2569.062988	1690.711914	39.212593
792.701416	1169.617676	2541.756836	1727.120239	40.630177
793.012085	1151.413574	2487.144287	1738.497925	43.952297
793.322693	1099.076538	2591.818115	1681.609863	39.024391
793.633240	1185.546387	2544.032227	1622.446289	32.160801
793.943787	1094.525513	2448.460449	1672.507813	42.689075
794.254272	1101.352051	2607.746826	1758.977539	43.655586
794.564636	1094.525513	2471.215576	1665.681274	41.487606
794.875000	1183.270874	2462.113525	1727.120239	42.526684
795.185303	1080.872437	2484.868652	1663.405762	41.491089
795.495544	1021.708862	2496.246338	1597.415649	39.043213
795.805786	1149.138062	2430.256104	1688.436401	42.095913
796.115906	1165.066650	2475.766602	1690.711914	40.104164
796.426025	1108.178589	2491.695313	1758.977539	47.039471
796.736023	1140.035889	2525.828125	1656.579102	37.274216
797.045959	1110.454102	2562.236328	1740.773438	43.416935
797.355896	1142.311401	2598.644775	1806.763550	45.625004
797.665833	1103.627563	2660.083740	1797.661377	44.590641
797.975708	1183.270874	2562.236328	1818.141113	46.039604
798.285461	1083.147949	2641.879639	1754.426514	43.065689
798.595154	1117.280762	2610.022461	1770.355225	43.749996
798.904846	1128.658325	2423.429688	1686.160889	43.057995
799.214478	1096.801025	2473.491211	1818.141113	52.396690
799.524109	1071.770264	2571.338623	1690.711914	41.274654
799.833557	1121.831787	2587.267090	1758.977539	43.478260
800.143005	1089.974487	2462.113525	1679.334351	42.951904
800.452393	1069.494751	2412.052002	1768.079712	52.033905
800.761780	1162.791138	2384.745850	1738.497925	47.113594
801.071106	1058.117188	2405.225586	1797.661377	54.898640
801.380371	1183.270874	2346.062012	1677.058838	42.465748
801.689575	1078.596802	2368.817139	1795.385864	55.555553
801.998718	1196.923950	2414.327637	1758.977539	46.168217
802.307800	1117.280762	2407.500977	1697.538574	44.973549
802.616882	1087.698975	2437.082764	1779.457275	51.264755
802.925903	1108.178589	2405.225586	1674.783325	43.684212
803.234863	1023.984375	2409.776611	1756.702026	52.873558
803.543701	1112.729614	2336.959961	1699.814087	47.955395
803.852539	1069.494751	2425.705078	1761.253052	51.006714
804.161316	1124.107300	2359.715088	1699.814087	46.593002
804.470032	1089.974487	2380.194824	1711.191650	48.148144
804.778809	1115.005249	2280.071777	1770.355225	56.250004
805.087341	1187.821899	2289.173828	1704.365112	46.900833
805.395935	1096.801025	2257.316650	1667.956787	49.215691
805.704468	1110.454102	2311.929199	1640.650513	44.128788
806.012939	1092.250000	2348.337402	1652.028076	44.565216
806.321350	1105.903076	2311.929199	1811.314575	58.490566
806.629761	1185.546387	2418.878662	1777.181763	47.970478
806.938049	1089.974487	2325.582275	1768.079712	54.880299
807.246277	1160.515625	2368.817139	1772.630737	50.659138
807.554504	1039.912964	2302.827148	1770.355225	57.837837
807.862671	1171.893188	2296.000488	1743.048950	50.809719
808.170715	1194.648438	2357.439453	1768.079712	49.315075
808.478821	1176.444214	2418.878662	1788.559326	49.267399
808.786804	1210.577026	2236.836914	1777.181763	55.210648
809.094727	1128.658325	2286.898438	1724.844727	51.473473
809.402649	1146.862427	2298.276123	1724.844727	50.197624
809.710510	1133.209351	2239.112549	1797.661377	60.082294
810.018311	1253.812012	2230.010498	1692.987427	44.988331
810.326050	1153.689087	2211.806152	1772.630737	58.494629
810.633667	1137.760376	2293.724854	1670.232300	46.063000
810.941345	1087.698975	2193.602051	1702.089600	55.555557
811.248901	1149.138062	2257.316650	1727.120239	52.156052
811.556396	1153.689087	2179.948975	1674.783325	50.776051
811.863892	1103.627563	2216.357178	1770.355225	59.918209
812.171326	1039.912964	2273.245361	1681.609863	52.029518
812.478699	1051.290649	2161.744873	1711.191650	59.426224
812.786011	1089.974487	2152.642578	1699.814087	57.387589
813.093262	1140.035889	2125.336426	1679.334351	54.734413
813.400391	1142.311401	2011.560425	1677.058838	61.518326
813.707642	1064.943726	2164.020264	1736.222412	61.076611
814.014709	1103.627563	2150.367188	1715.742676	58.478260
814.321716	1146.862427	2136.714111	1729.395752	58.850567
814.628723	1137.760376	2239.112549	1747.599976	55.371899
814.935669	1046.739624	2141.265137	1720.293701	61.538452
815.242554	1210.577026	2118.509766	1686.160889	52.380959
815.549438	1108.178589	2225.459229	1686.160889	51.731167
815.856201	1092.250000	2104.856689	1672.507813	57.303375
816.162964	1121.831787	2091.203613	1706.640625	60.328640
816.469604	1128.658325	2207.255127	1711.191650	54.008442
816.776184	1208.301514	2109.407715	1690.711914	53.535355
817.082825	1155.964600	2159.469238	1658.854614	50.113373
817.389343	1130.933838	2182.224365	1692.987427	53.463203
817.695801	1060.392700	2159.469238	1672.507813	55.693584
818.002197	1044.463989	2173.122314	1665.681274	55.040333
818.308533	1169.617676	2186.775391	1777.181763	59.731552
818.614868	1119.556274	2214.081787	1795.385864	61.746353
818.921143	1128.658325	2216.357178	1824.967651	64.016739
819.227356	1135.484863	2195.877686	1772.630737	60.085835
819.533447	1115.005249	2207.255127	1836.345337	66.041672
819.839539	1087.698975	2245.938965	1795.385864	61.100193
820.145569	1126.382813	2291.449463	1749.875488	53.515621
820.451538	1137.760376	2341.510986	1927.366089	65.595459
820.757568	1144.586914	2421.154053	2020.662476	68.627457
821.063416	1140.035889	2566.787354	1993.356201	59.808617
821.369263	1115.005249	2678.288086	2123.060791	64.483246
821.675049	1165.066650	2819.370361	2202.704102	62.723515
821.980713	1169.617676	2842.125488	2230.010498	63.401367
822.286438	1055.841675	3067.402100	2277.796387	60.746609
822.592102	1094.525513	3269.923340	2418.878662	60.878662
822.897583	1058.117188	4002.641113	2987.758789	65.533226
823.203125	1037.637451	6116.600098	4207.437988	62.410389
823.508545	1115.005249	8312.477539	5707.006348	63.800190
823.813965	1099.076538	10292.180664	6844.766602	62.499996
824.119263	1119.556274	10968.010742	7117.829102	60.905731
824.424622	1101.352051	9909.893555	6662.725098	63.136143
824.729858	1119.556274	8426.253906	5713.832520	62.877602
825.035095	1153.689087	7331.728027	4942.431152	61.325966
825.340149	1140.035889	6259.957520	4200.611328	59.777775
825.645264	1099.076538	5433.943848	3929.824463	65.301842
825.950256	1126.382813	5003.870117	3565.741211	62.910805
826.255310	1135.484863	4612.480469	3253.994629	60.929321
826.560242	1080.872437	4148.274414	3099.259277	65.801186
826.865112	1101.352051	3929.824463	2903.564453	63.716812
827.169922	1112.729614	3806.946289	2869.431641	65.202698
827.474670	1162.791138	3690.894775	2787.512939	64.266426
827.779419	1087.698975	3866.109863	2828.472412	62.653564
828.084045	1176.444214	4257.499512	3090.157227	62.112259
828.388672	1130.933838	4771.767090	3531.608398	65.937500
828.693176	1165.066650	5215.493652	3772.813477	64.382019
828.997681	1178.719727	5192.738281	3715.925537	63.208622
829.302124	1146.862427	4774.042480	3472.444824	64.115440
829.606567	1126.382813	4041.324951	3083.330566	67.135048
829.910828	1142.311401	3647.659912	2908.115479	70.481369
830.215149	1124.107300	3463.342773	2678.288086	66.439690
830.519348	1217.403687	3160.698486	2500.797363	66.042152
830.823547	1094.525513	2885.360352	2389.296875	72.299873
831.127686	1087.698975	2844.401123	2316.480225	69.948181
831.431763	1108.178589	2687.390137	2134.438477	64.985588
831.735779	1108.178589	2544.032227	2066.172852	66.719490
832.039734	1115.005249	2509.899414	2038.866699	66.231651
832.343628	1117.280762	2400.674561	1970.601074	66.489357
832.647461	1153.689087	2282.347412	2027.489014	77.419350
832.951233	1196.923950	2350.613037	1911.437500	61.932938
833.255127	1117.280762	2255.041016	1997.907227	77.400002
833.558777	1149.138062	2311.929199	1997.907227	72.994118
833.862366	1203.750488	2291.449463	2020.662476	75.104599
834.165955	1162.791138	2423.429688	2059.346436	71.119141
834.469482	1178.719727	2785.237549	2227.734863	65.297447
834.773010	1160.515625	3112.912354	2555.409912	71.445229
835.076416	1110.454102	3465.618164	2846.676514	73.719810
835.379822	1126.382813	3697.721191	2937.697266	70.442474
835.683105	1180.995239	3620.353516	2999.136475	74.533585
835.986389	1037.637451	3502.026611	2726.073975	68.513390
836.289612	1067.219238	3228.964111	2514.450439	66.947365
836.592773	1105.903076	3042.371338	2402.949951	66.980019
836.895874	1108.178589	2801.166016	2298.276123	70.295708
837.198914	1149.138062	2612.297852	2186.775391	70.917564
837.501892	1085.423462	2528.103516	2109.407715	70.977921
837.804871	1135.484863	2332.408936	1966.049927	69.391624
838.107666	1117.280762	2227.734863	2013.835938	80.737709
838.410583	1067.219238	2259.592041	1936.468262	72.900772
838.713379	1133.209351	2154.918213	1938.743774	78.841873
839.016052	1078.596802	2038.866699	1811.314575	76.303314
839.318787	1126.382813	2032.040039	1877.304688	82.914581
839.621338	1149.138062	1950.121338	1747.599976	74.715904
839.923889	1087.698975	1913.713013	1663.405762	69.696976
840.226440	1085.423462	1938.743774	1777.181763	81.066666
840.528931	1117.280762	1988.805176	1743.048950	71.801567
840.831299	1160.515625	2002.458252	1786.283813	74.324326
841.133606	1180.995239	2082.101563	1788.559326	67.424240
841.435913	1067.219238	2209.530762	1877.304688	70.916336
841.738220	1133.209351	2216.357178	1968.325439	77.100838
842.040405	1067.219238	2259.592041	1897.784302	69.656494
842.342529	1142.311401	2041.142212	1881.855713	82.278481
842.644592	1128.658325	2036.591064	1806.763550	74.686722
842.946594	1133.209351	1909.161987	1770.355225	82.111435
843.248596	1080.872437	1895.508789	1843.171875	93.575424
843.550598	1174.168701	1884.131226	1695.262939	73.397430
843.852478	1153.689087	1829.518677	1677.058838	77.441086
844.154236	1108.178589	1890.957764	1661.130127	70.639534
844.455994	1153.689087	1829.518677	1649.752563	73.400673
844.757690	1165.066650	1754.426514	1586.037964	71.428566
845.059326	1105.903076	1770.355225	1504.119263	59.931507
845.360962	1133.209351	1781.732788	1526.874512	60.701763
845.662476	1190.097412	1608.793213	1510.945801	76.630432
845.963989	1110.454102	1747.599976	1597.415649	76.428581
846.265381	1140.035889	1677.058838	1595.140137	84.745773
846.566772	1137.760376	1642.926025	1501.843750	72.072075
846.868042	1117.280762	1665.681274	1533.701050	75.933609
847.169373	1096.801025	1615.619751	1522.323364	82.017540
847.470581	1126.382813	1581.486938	1444.955688	70.000000
847.771729	1117.280762	1706.640625	1565.558350	76.061775
848.072815	1060.392700	1690.711914	1476.812988	66.064987
848.373901	1117.280762	1640.650513	1535.976563	80.000000
848.674866	1151.413574	1624.721802	1542.803101	82.692314
848.975891	1071.770264	1588.313477	1460.884399	75.330414
849.276794	1062.668213	1586.037964	1447.231201	73.478264
849.577637	1101.352051	1670.232300	1476.812988	65.999992
849.878357	1089.974487	1633.823975	1447.231201	65.690369
850.179077	1014.882263	1586.037964	1517.772339	88.047806
850.479736	1167.342163	1547.354126	1465.435425	78.443123
850.780396	1112.729614	1581.486938	1406.271851	62.621365
851.080994	1135.484863	1601.966675	1510.945801	80.487801
851.381470	1101.352051	1626.997314	1563.282837	87.878807
851.681946	1074.045776	1615.619751	1517.772339	81.932770
851.982361	1096.801025	1636.099487	1426.751587	61.181438
852.282715	1135.484863	1579.211426	1490.466064	79.999992
852.583008	1146.862427	1565.558350	1449.506714	72.282600
852.883240	1112.729614	1622.446289	1531.425537	82.142876
853.183411	1108.178589	1579.211426	1506.394775	84.541069
853.483521	1133.209351	1556.456177	1524.598877	92.473114
853.783630	1101.352051	1642.926025	1460.884399	66.386566
854.083679	1135.484863	1656.579102	1440.404663	58.515289
854.383667	1101.352051	1490.466064	1510.945801	105.263168
854.683533	1178.719727	1531.425537	1415.373901	67.096764
854.983337	1133.209351	1547.354126	1488.190552	85.714279
855.283203	1135.484863	1524.598877	1413.098389	71.345032
855.582886	1080.872437	1570.109375	1558.731689	97.674400
855.882629	1130.933838	1586.037964	1469.986450	74.500008
856.182312	1121.831787	1454.057739	1378.965576	77.397263
856.481873	1121.831787	1531.425537	1447.231201	79.444427
856.781372	1089.974487	1615.619751	1510.945801	80.086578
857.080872	1153.689087	1556.456177	1513.221313	89.265541
857.380310	1162.791138	1497.292725	1490.466064	97.959152
857.679688	1074.045776	1535.976563	1510.945801	94.581276
857.979004	1137.760376	1579.211426	1363.036987	51.030937
858.278259	1096.801025	1531.425537	1435.853638	78.010468
858.577454	1171.893188	1524.598877	1495.017212	91.612930
858.876648	1128.658325	1490.466064	1424.476074	81.761032
859.175720	1103.627563	1504.119263	1417.649414	78.409081
859.474792	1019.433350	1547.354126	1429.027100	77.586212
859.773743	1058.117188	1638.375000	1524.598877	80.392143
860.072693	1158.240112	1592.864502	1472.261963	72.251320
860.371521	1251.536499	1535.976563	1419.924927	59.199970
860.670349	1187.821899	1529.150024	1472.261963	83.333321
860.969116	1137.760376	1485.915039	1422.200562	81.699379
861.267883	1183.270874	1520.047852	1469.986450	85.135147
861.566589	1071.770264	1497.292725	1449.506714	88.770035
861.865112	1076.321289	1522.323364	1444.955688	82.653069
862.163635	1126.382813	1545.078613	1438.129150	74.456520
862.462158	1137.760376	1504.119263	1499.568237	98.757767
862.760620	1135.484863	1542.803101	1406.271851	66.480446
863.059021	1053.566162	1558.731689	1467.710938	81.981995
863.357361	1153.689087	1533.701050	1444.955688	76.646690
863.655640	1180.995239	1474.537476	1440.404663	88.372093
863.953857	1108.178589	1561.007324	1410.822876	66.834160
864.251953	1196.923950	1558.731689	1447.231201	69.182396
864.550110	1144.586914	1551.905151	1447.231201	74.301682
864.848206	1058.117188	1608.793213	1429.027100	67.355377
865.146179	1146.862427	1538.252075	1465.435425	81.395355
865.444092	1064.943726	1551.905151	1579.211426	105.607483
865.741943	1092.250000	1472.261963	1524.598877	113.772438
866.039795	1112.729614	1460.884399	1492.741699	109.150330
866.337646	1153.689087	1522.323364	1415.373901	70.987648
866.635376	1035.361938	1438.129150	1472.261963	108.474579
866.933044	1199.199463	1508.670288	1485.915039	92.647049
867.230652	1035.361938	1533.701050	1463.159912	85.844749
867.528198	1151.413574	1488.190552	1495.017212	102.027054
867.825745	1165.066650	1547.354126	1397.169800	60.714294
868.123230	1076.321289	1551.905151	1490.466064	87.081337
868.420593	1183.270874	1551.905151	1374.414551	51.851845
868.717896	1212.852539	1504.119263	1513.221313	103.124985
869.015198	1142.311401	1454.057739	1392.618774	80.292000
869.312439	1135.484863	1483.639526	1501.843750	105.228775
869.609619	1119.556274	1454.057739	1415.373901	88.435379
869.906738	1087.698975	1474.537476	1426.751587	87.647072
870.203796	1069.494751	1545.078613	1485.915039	87.559799
870.500854	1142.311401	1574.660400	1440.404663	68.947372
870.797791	1112.729614	1524.598877	1426.751587	76.243118
871.094666	1103.627563	1604.242188	1392.618774	57.727280
871.391602	1069.494751	1563.282837	1479.088501	82.949295
871.688293	1110.454102	1542.803101	1520.047852	94.736832
871.985107	1062.668213	1554.180664	1469.986450	82.870377
872.281738	1053.566162	1520.047852	1392.618774	72.682938
872.578369	1121.831787	1549.629639	1397.169800	64.361710
872.874939	1119.556274	1556.456177	1429.027100	70.833344
873.171509	1094.525513	1467.710938	1433.578125	90.853661
873.467957	1049.015137	1426.751587	1474.537476	112.650589
873.764343	1171.893188	1490.466064	1535.976563	114.285744
874.060669	1069.494751	1488.190552	1435.853638	87.500015
874.356995	1085.423462	1595.140137	1435.853638	68.749992
874.653198	1078.596802	1510.945801	1551.905151	109.473679
874.949463	1124.107300	1472.261963	1456.333252	95.424820
875.245544	1133.209351	1579.211426	1440.404663	68.877556
875.541626	1174.168701	1529.150024	1515.496826	96.153824
875.837646	1158.240112	1574.660400	1488.190552	79.234955
876.133606	1178.719727	1522.323364	1488.190552	90.066223
876.429565	1142.311401	1490.466064	1481.364014	97.385628
876.725403	1176.444214	1554.180664	1440.404663	69.879532
877.021179	1105.903076	1558.731689	1549.629639	97.989960
877.316956	1128.658325	1465.435425	1438.129150	91.891884
877.612610	1119.556274	1574.660400	1490.466064	81.499985
877.908203	1115.005249	1499.568237	1460.884399	89.940834
878.203857	1074.045776	1524.598877	1447.231201	82.828293
878.499390	1078.596802	1517.772339	1567.833862	111.398979
878.794800	1121.831787	1481.364014	1479.088501	99.367088
879.090271	1094.525513	1495.017212	1460.884399	91.477272
879.385559	1149.138062	1567.833862	1513.221313	86.956512
879.680847	1130.933838	1611.068726	1526.874512	82.464470
879.976196	1124.107300	1570.109375	1556.456177	96.938759
880.271301	1140.035889	1642.926025	1633.823975	98.190048
880.566467	1208.301514	1615.619751	1699.814087	120.670410
880.861572	1126.382813	1702.089600	1606.517700	83.399208
881.156555	1119.556274	1822.692139	1683.885376	80.258896
881.451477	1069.494751	1906.886475	1913.713013	100.815216
881.746460	1112.729614	2282.347412	2182.224365	91.439682
882.041321	1039.912964	2848.952148	2655.532715	89.308167
882.336121	1110.454102	3599.874023	3472.444824	94.881172
882.630798	1053.566162	4205.162598	4004.916504	93.646202
882.925537	1078.596802	4642.062500	4512.357910	96.360153
883.220215	1130.933838	4867.338867	4457.745117	89.037758
883.514771	1055.841675	4448.643066	4252.948242	94.232056
883.809326	1112.729614	4105.039551	3918.446777	93.764259
884.103760	1169.617676	3834.252441	3677.241699	94.107605
884.398132	1165.066650	3590.771729	3395.077148	91.932465
884.692505	1176.444214	3363.219727	3149.320801	90.218529
884.986816	1110.454102	3101.534912	2851.227539	87.428566
885.281067	1153.689087	2978.656738	2823.921387	91.521202
885.575256	1160.515625	2755.655762	2701.043213	96.576317
885.869385	1196.923950	2480.317627	2387.021240	92.730492
886.163452	1092.250000	2346.062012	2186.775391	87.295815
886.457458	1162.791138	2150.367188	2054.795166	90.322563
886.751465	1194.648438	2098.030273	2022.937988	91.687645
887.045410	1112.729614	2066.172852	1972.876587	90.214806
887.339233	1162.791138	1915.988525	1859.100464	92.447121
887.632996	1112.729614	1793.110352	1799.937012	101.003357
887.926758	1153.689087	1838.620850	1770.355225	90.033226
888.220398	1187.821899	1774.906250	1674.783325	82.945732
888.514099	1121.831787	1686.160889	1654.303589	94.354836
888.807678	1037.637451	1611.068726	1567.833862	92.460327
889.101196	1135.484863	1649.752563	1551.905151	80.973450
889.394653	1158.240112	1597.415649	1556.456177	90.673553
889.688049	1067.219238	1476.812988	1558.731689	119.999985
889.981384	1105.903076	1611.068726	1513.221313	80.630630
890.274719	1099.076538	1538.252075	1447.231201	79.274605
890.567932	1140.035889	1604.242188	1563.282837	91.176476
>>>>>End Processed Spectral Data<<<<<
