Jaz Data File
++++++++++++++++++++++++++++++++++++
Date: Sun Sep 29 07:28:08 2024
User: jaz
Dark Spectrum Present: Yes
Reference Spectrum Present: Yes
Processed Spectrum Present: Yes
Spectrometers: JAZA3692
Integration Time (usec): 40000 (JAZA3692)
Spectra Averaged: 1 (JAZA3692)
Boxcar Smoothing: 0 (JAZA3692)
Correct for Electrical Dark: No (JAZA3692)
Strobe/Lamp Enabled: Yes (JAZA3692)
Correct for Detector Non-linearity: No (JAZA3692)
Correct for Stray Light: No (JAZA3692)
Number of Pixels in Processed Spectrum: 2048
>>>>>Begin Processed Spectral Data<<<<<
W	D	R	S	P
190.244385	0.000000	0.000000	0.000000	0.000000
190.627136	0.000000	0.000000	0.000000	0.000000
191.009842	1105.903076	1067.219238	1042.188477	164.705994
191.392532	1112.729614	1064.943726	1044.463989	142.857285
191.775177	1137.760376	1119.556274	1137.760376	-0.000000
192.157791	1144.586914	1085.423462	1140.035889	7.692292
192.540390	1196.923950	1151.413574	1044.463989	335.000458
192.922943	1178.719727	1074.045776	1115.005249	60.869469
193.305481	1183.270874	1162.791138	1051.290649	644.442993
193.687958	1105.903076	1190.097412	1092.250000	-16.216146
194.070419	1112.729614	1087.698975	1162.791138	-200.000977
194.452866	1221.954712	1178.719727	1165.066650	131.578766
194.835251	1187.821899	1249.260864	1160.515625	-44.444553
195.217621	1199.199463	1210.577026	1171.893188	-240.001068
195.599960	1142.311401	1135.484863	1149.138062	-100.001785
195.982254	1078.596802	1137.760376	1194.648438	196.153870
196.364517	1124.107300	1146.862427	1149.138062	110.000534
196.746750	1167.342163	1128.658325	1128.658325	100.000000
197.128952	1178.719727	1169.617676	1101.352051	850.002686
197.511139	1167.342163	1233.332275	1108.178589	-89.655212
197.893280	1165.066650	1092.250000	1162.791138	3.124990
198.275391	1087.698975	1187.821899	1115.005249	27.272749
198.657471	1119.556274	1206.026001	1165.066650	52.631573
199.039520	1130.933838	1256.087524	1196.923950	52.727261
199.421539	1171.893188	1215.128052	1146.862427	-57.894855
199.803513	1185.546387	1110.454102	1196.923950	-15.151442
200.185471	1099.076538	1144.586914	1049.015137	-109.999969
200.567383	1208.301514	1162.791138	1151.413574	124.999931
200.949265	1167.342163	1221.954712	1217.403687	91.666702
201.331131	1124.107300	1137.760376	1105.903076	-133.334229
201.712967	1140.035889	1101.352051	1130.933838	23.529337
202.094742	1133.209351	1180.995239	1155.964600	47.619183
202.476517	1083.147949	1199.199463	1176.444214	80.392113
202.858231	1128.658325	1153.689087	1160.515625	127.272591
203.239944	1103.627563	1155.964600	1140.035889	69.565125
203.621582	1121.831787	1130.933838	1110.454102	-125.001343
204.003235	1137.760376	1112.729614	1117.280762	81.817780
204.384827	1144.586914	1185.546387	1149.138062	11.111343
204.766388	1108.178589	1215.128052	1105.903076	-2.127652
205.147934	1078.596802	1153.689087	1169.617676	121.212021
205.529449	1146.862427	1133.209351	1140.035889	50.000000
205.910904	1119.556274	1206.026001	1112.729614	-7.894855
206.292343	1115.005249	1092.250000	1071.770264	190.000061
206.673767	1140.035889	1158.240112	1121.831787	-99.999329
207.055115	1233.332275	1094.525513	1124.107300	78.688515
207.436462	1076.321289	1174.168701	1080.872437	4.651270
207.817780	1151.413574	1096.801025	1096.801025	100.000000
208.199051	1126.382813	1187.821899	1112.729614	-22.222332
208.580307	1044.463989	1108.178589	1074.045776	46.428585
208.961517	1092.250000	1126.382813	1135.484863	126.666573
209.342712	1069.494751	1121.831787	1133.209351	121.739029
209.723846	1092.250000	1149.138062	1130.933838	67.999924
210.104965	1187.821899	1140.035889	1149.138062	80.952225
210.486069	1128.658325	1190.097412	1076.321289	-85.185242
210.867111	1078.596802	1128.658325	1149.138062	140.909134
211.248123	1176.444214	1130.933838	1133.209351	95.000015
211.629120	1130.933838	1169.617676	1103.627563	-70.588326
212.010071	1089.974487	1142.311401	1119.556274	56.521839
212.390991	1126.382813	1128.658325	1176.444214	2200.005371
212.771881	1187.821899	1128.658325	1110.454102	130.769318
213.152756	1160.515625	1171.893188	1137.760376	-200.001068
213.533569	1115.005249	1146.862427	1112.729614	-7.143240
213.914368	1124.107300	1196.923950	1140.035889	21.874928
214.295135	1199.199463	1201.474976	1105.903076	-4100.016113
214.675858	1140.035889	1112.729614	1092.250000	174.999664
215.056549	1130.933838	1101.352051	1135.484863	-15.384552
215.437225	1153.689087	1130.933838	1153.689087	-0.000000
215.817841	1155.964600	1196.923950	1117.280762	-94.444458
216.198441	1115.005249	1176.444214	1144.586914	48.148052
216.579025	1140.035889	1160.515625	1124.107300	-77.777313
216.959549	1128.658325	1233.332275	1137.760376	8.695621
217.340057	1067.219238	1144.586914	1176.444214	141.176498
217.720535	1165.066650	1160.515625	1101.352051	1400.005371
218.100967	1153.689087	1160.515625	1153.689087	0.000000
218.481369	1151.413574	1128.658325	1196.923950	-199.999466
218.861740	1119.556274	1117.280762	1140.035889	-900.000000
219.242065	1119.556274	1146.862427	1162.791138	158.333786
219.622391	1153.689087	1115.005249	1155.964600	-5.882334
220.002670	1083.147949	1142.311401	1071.770264	-19.230936
220.382919	1146.862427	1130.933838	1171.893188	-157.143631
220.763123	1128.658325	1162.791138	1094.525513	-100.000000
221.143295	1128.658325	1190.097412	1080.872437	-77.777664
221.523453	1169.617676	1180.995239	1160.515625	-80.000000
221.903549	1121.831787	1194.648438	1146.862427	34.374886
222.283630	1142.311401	1212.852539	1160.515625	25.806536
222.663696	1160.515625	1126.382813	1019.433350	413.333282
223.043701	1115.005249	1196.923950	1158.240112	52.777771
223.423676	1058.117188	1142.311401	1101.352051	51.351349
223.803635	1140.035889	1149.138062	1199.199463	649.993958
224.183548	1080.872437	1192.372925	1158.240112	69.387749
224.563431	1033.086426	1192.372925	1099.076538	41.428566
224.943283	1115.005249	1174.168701	1192.372925	130.769379
225.323105	1110.454102	1144.586914	1183.270874	213.333649
225.702881	1133.209351	1199.199463	1153.689087	31.034554
226.082642	1085.423462	1149.138062	1194.648438	171.428482
226.462357	1146.862427	1244.709839	1190.097412	44.186131
226.842041	1087.698975	1165.066650	1176.444214	114.705833
227.221695	1124.107300	1178.719727	1137.760376	24.999945
227.601318	1137.760376	1171.893188	1124.107300	-39.999855
227.980911	1135.484863	1171.893188	1201.474976	181.250061
228.360474	1058.117188	1206.026001	1185.546387	86.153893
228.739990	1171.893188	1290.220337	1174.168701	1.923069
229.119476	1105.903076	1231.056763	1269.740601	130.909073
229.498932	1074.045776	1237.883301	1281.118164	126.388863
229.878372	1124.107300	1324.353149	1210.577026	43.181782
230.257736	1167.342163	1454.057739	1267.465088	34.920643
230.637115	1126.382813	1383.516602	1351.659302	87.610611
231.016449	1067.219238	1367.588013	1301.597900	78.030304
231.395737	1155.964600	1381.241089	1262.914063	47.474754
231.774994	1144.586914	1306.148926	1310.699951	102.816895
232.154221	1128.658325	1253.812012	1312.975464	147.272644
232.533417	1087.698975	1292.495850	1235.607788	72.222206
232.912582	1071.770264	1292.495850	1278.842651	93.814400
233.291702	1117.280762	1278.842651	1212.852539	59.154903
233.670792	1149.138062	1272.016113	1194.648438	37.037025
234.049866	1151.413574	1328.904175	1324.353149	97.435905
234.428894	1117.280762	1310.699951	1253.812012	70.588264
234.807892	1155.964600	1315.250977	1190.097412	21.428583
235.186874	1178.719727	1256.087524	1308.424438	167.646896
235.565781	1128.658325	1269.740601	1224.230225	67.741959
235.944687	1087.698975	1328.904175	1231.056763	59.433952
236.323547	1133.209351	1317.526489	1212.852539	43.209866
236.702377	1110.454102	1272.016113	1219.679199	67.605682
237.081177	1115.005249	1278.842651	1151.413574	22.222231
237.459946	1130.933838	1297.046875	1219.679199	53.424683
237.838669	1167.342163	1340.281738	1274.291626	61.842098
238.217361	1130.933838	1353.934937	1185.546387	24.489811
238.596039	1110.454102	1381.241089	1185.546387	27.731127
238.974670	1087.698975	1326.628662	1208.301514	50.476162
239.353271	1030.810913	1406.271851	1256.087524	60.000011
239.731842	1115.005249	1381.241089	1249.260864	50.427326
240.110367	1146.862427	1401.720825	1265.189575	46.428585
240.488876	1140.035889	1322.077637	1158.240112	10.000027
240.867340	1089.974487	1399.445313	1281.118164	61.764683
241.245789	1151.413574	1392.618774	1335.730713	76.415077
241.624176	1124.107300	1460.884399	1306.148926	54.054039
242.002548	1130.933838	1526.874512	1394.894287	66.666664
242.380890	1169.617676	1479.088501	1385.792114	69.852928
242.759186	1128.658325	1633.823975	1547.354126	82.882874
243.137451	1144.586914	1692.987427	1538.252075	71.784241
243.515686	1146.862427	1802.212524	1490.466064	52.430546
243.893890	1142.311401	1745.324463	1472.261963	54.716984
244.272049	1055.841675	1875.029175	1579.211426	63.888885
244.650192	1140.035889	1761.253052	1495.017212	57.142872
245.028290	1135.484863	1672.507813	1401.720825	49.576271
245.406357	1135.484863	1663.405762	1456.333252	60.775845
245.784393	1144.586914	1617.895264	1435.853638	61.538471
246.162384	1149.138062	1617.895264	1440.404663	62.135921
246.540359	1140.035889	1647.477051	1479.088501	66.816139
246.918289	1128.658325	1704.365112	1613.344238	84.189720
247.296204	1146.862427	1843.171875	1679.334351	76.470589
247.674057	1201.474976	2100.305664	1745.324463	60.506332
248.051895	1162.791138	2296.000488	1963.774414	70.682724
248.429703	1146.862427	2355.164063	1952.396851	66.666664
248.807465	1155.964600	2434.807373	1956.947876	62.633446
249.185196	1124.107300	2189.051025	1900.059814	72.863243
249.562897	1096.801025	2091.203613	1724.844727	63.157890
249.940567	1110.454102	1945.570313	1704.365112	71.117172
250.318192	1155.964600	1904.610962	1595.140137	58.662617
250.695801	1167.342163	1831.794189	1615.619751	67.465759
251.073349	1174.168701	1733.946899	1485.915039	55.691048
251.450882	1135.484863	1736.222412	1522.323364	64.393929
251.828400	1133.209351	1779.457275	1376.690063	37.676052
252.205872	1115.005249	1758.977539	1419.924927	47.349812
252.583313	1130.933838	1752.151001	1526.874512	63.736275
252.960693	1112.729614	1813.590088	1504.119263	55.844162
253.338074	1071.770264	1909.161987	1661.130127	70.380424
253.715408	1142.311401	1906.886475	1622.446289	62.797611
254.092682	1099.076538	1868.202637	1551.905151	58.875732
254.469955	1087.698975	1749.875488	1526.874512	66.323029
254.847198	1121.831787	1683.885376	1551.905151	76.518211
255.224365	1149.138062	1677.058838	1549.629639	75.862061
255.601563	1115.005249	1738.497925	1433.578125	51.094887
255.978683	1089.974487	1747.599976	1485.915039	60.207603
256.355743	1115.005249	1720.293701	1472.261963	59.022556
256.732819	1171.893188	1720.293701	1540.527588	67.219925
257.109894	1133.209351	1631.548462	1499.568237	73.515984
257.486877	1183.270874	1708.916138	1488.190552	58.008640
257.863831	1142.311401	1731.671387	1492.741699	59.459465
258.240753	1135.484863	1870.478149	1661.130127	71.517014
258.617645	1162.791138	1818.141113	1570.109375	62.152782
258.994507	1060.392700	1970.601074	1611.068726	60.499996
259.371307	1078.596802	2016.111450	1667.956787	62.864082
259.748108	1096.801025	2182.224365	1765.804199	61.635231
260.124878	1121.831787	2361.990479	1936.468262	65.688080
260.501617	1094.525513	2630.501953	2016.111450	60.000004
260.878296	1103.627563	2949.074951	2179.948975	58.323063
261.254944	1115.005249	3015.064941	2296.000488	62.155693
261.631561	1099.076538	3010.513916	2230.010498	59.166676
262.008179	1119.556274	2755.655762	2084.376953	58.970783
262.384735	1096.801025	2416.603027	1966.049927	65.862068
262.761261	1135.484863	2086.652588	1765.804199	66.267952
263.137695	1060.392700	2170.846924	1718.018188	59.221306
263.514191	1108.178589	2093.479248	1745.324463	64.665123
263.890594	1110.454102	2152.642578	1729.395752	59.388649
264.267029	1108.178589	2002.458252	1686.160889	64.631042
264.643341	1067.219238	2016.111450	1743.048950	71.223022
265.019653	1094.525513	2116.234375	1724.844727	61.692646
265.395935	1108.178589	2066.172852	1583.762451	49.643707
265.772217	1144.586914	1966.049927	1677.058838	64.819954
266.148407	1128.658325	1993.356201	1688.436401	64.736839
266.524597	1137.760376	2070.723877	1615.619751	51.219513
266.900726	1119.556274	2027.489014	1631.548462	56.390984
267.276855	1151.413574	2243.663574	1754.426514	55.208324
267.652924	1085.423462	2209.530762	1793.110352	62.955456
268.028992	1105.903076	2327.857666	1893.233276	64.432037
268.404999	1183.270874	2305.102539	1824.967651	57.200809
268.781006	1137.760376	2389.296875	1724.844727	46.909088
269.156921	1062.668213	2296.000488	1840.896362	63.099632
269.532837	1171.893188	2346.062012	1822.692139	55.426353
269.908661	1165.066650	2296.000488	1799.937012	56.136826
270.284546	1112.729614	2250.489990	1768.079712	57.600010
270.660339	1076.321289	2248.214600	1829.518677	64.271843
271.036133	1185.546387	2282.347412	1847.722900	60.373440
271.411835	1101.352051	2473.491211	1931.917114	60.530674
271.787537	1137.760376	2493.970703	1931.917114	58.557049
272.163239	1151.413574	2703.318604	1997.907227	54.545456
272.538849	1105.903076	2873.982666	2075.274902	54.826256
272.914459	1119.556274	2960.452637	2152.642578	56.118656
273.290070	1165.066650	2855.778564	2154.918213	58.546436
273.665588	1080.872437	2673.737061	2107.132324	64.428566
274.041046	1135.484863	2707.869873	2045.693237	57.887119
274.416565	1180.995239	2664.634766	2036.591064	57.668713
274.791962	1117.280762	2637.328613	1936.468262	53.892220
275.167389	1055.841675	2553.134277	1915.988525	57.446812
275.542755	1121.831787	2450.735840	1915.988525	59.760277
275.918060	1033.086426	2455.286865	1890.957764	60.320004
276.293365	1117.280762	2514.450439	1938.743774	58.794792
276.668640	1124.107300	2523.552490	1915.988525	56.585369
277.043854	1060.392700	2614.573486	1952.396851	57.393848
277.419037	1083.147949	2546.307861	2018.386963	63.919125
277.794189	1119.556274	2557.685303	2047.968750	64.556969
278.169312	1126.382813	2548.583252	2043.417725	64.480003
278.544373	1117.280762	2607.746826	1984.254150	58.167938
278.919464	1135.484863	2580.440674	1954.672363	56.692909
279.294464	1103.627563	2559.960938	1975.152100	59.843754
279.669464	1171.893188	2573.614014	1906.886475	52.435070
280.044403	1165.066650	2630.501953	1913.713013	51.086960
280.419312	1206.026001	2650.981689	1993.356201	54.488190
280.794189	1140.035889	2594.093750	2050.244141	62.597801
281.169037	1121.831787	2728.349365	2020.662476	55.949009
281.543854	1192.372925	2710.145264	1977.427612	51.724140
281.918671	1144.586914	2769.308838	2161.744873	62.605049
282.293365	1121.831787	2908.115479	2255.041016	63.439487
282.668091	1096.801025	3165.249512	2245.938965	55.555550
283.042786	1089.974487	3099.259277	2352.888428	62.853905
283.417419	1094.525513	3281.301025	2245.938965	52.653484
283.792053	1146.862427	3197.106689	2348.337402	58.601555
284.166595	1130.933838	2990.034424	2316.480225	63.769890
284.541138	1121.831787	3035.544678	2204.979736	56.599293
284.915619	1080.872437	2910.391113	2268.694336	64.925377
285.290100	1121.831787	3008.238525	2243.663574	59.469242
285.664520	1165.066650	3094.708252	2211.806152	54.245281
286.038940	1119.556274	3081.055176	2346.062012	62.529003
286.413300	1105.903076	3215.310791	2530.379150	67.529671
286.787628	1153.689087	3281.301025	2523.552490	64.385025
287.161896	1160.515625	3399.628174	2582.716064	63.516254
287.536194	1130.933838	3390.525879	2630.501953	66.364548
287.910400	1128.658325	3388.250488	2559.960938	63.343403
288.284607	1003.504700	3351.842041	2493.970703	63.468990
288.658752	1155.964600	3060.575439	2355.164063	62.962967
289.032867	1121.831787	3005.962891	2359.715088	65.700485
289.406921	1121.831787	3083.330566	2361.990479	63.225056
289.781006	1124.107300	3160.698486	2309.653564	58.212284
290.154999	1146.862427	3194.831299	2323.306641	57.444439
290.529022	1133.209351	3281.301025	2468.940186	62.182205
290.902954	1053.566162	3404.179199	2580.440674	64.956436
291.276825	1103.627563	3479.271240	2569.062988	61.685829
291.650757	1069.494751	3458.791504	2678.288086	67.333336
292.024597	1094.525513	3392.801514	2557.685303	63.663364
292.398407	1085.423462	3401.903564	2600.920166	65.422394
292.772156	1178.719727	3345.015625	2512.175049	61.554626
293.145905	1096.801025	3247.168213	2521.277100	66.243385
293.519592	1146.862427	3217.586426	2443.909424	62.637363
293.893280	1130.933838	3285.852051	2496.246338	63.357971
294.266907	1078.596802	3228.964111	2594.093750	70.476196
294.640533	1069.494751	3429.209961	2603.195801	64.995171
295.014069	1083.147949	3429.209961	2637.328613	66.246361
295.387604	1121.831787	3686.343750	2671.461426	60.425907
295.761078	1085.423462	3754.609375	2721.522949	61.295822
296.134552	1128.658325	3677.241699	2867.156250	68.214279
296.507996	1165.066650	3718.200928	2755.655762	62.299469
296.881378	1067.219238	3759.160400	2776.135498	63.482674
297.254730	1080.872437	3988.988037	2946.799316	64.162743
297.628021	1126.382813	4070.906738	3019.616211	64.296761
298.001282	1142.311401	4159.651855	3228.964111	69.155365
298.374573	1121.831787	4282.530273	3292.678711	68.682503
298.747803	1096.801025	4257.499512	3106.085938	63.570915
299.121002	1096.801025	3988.988037	3069.677490	68.213997
299.494141	1124.107300	3729.578613	3028.718262	73.100441
299.867188	1119.556274	3624.904541	2844.401123	68.846512
300.240265	1076.321289	3720.476563	2782.961914	64.543892
300.613312	1174.168701	3681.792725	2807.992676	65.154266
300.986328	1224.230225	3520.230713	2751.104736	66.501488
301.359314	1094.525513	3499.750977	2755.655762	69.063385
301.732239	1194.648438	3367.770752	2798.890625	73.821991
302.105103	1171.893188	3447.414063	2737.451416	68.799988
302.477997	1080.872437	3608.976074	2739.727051	65.616562
302.850830	1149.138062	3593.047363	2837.574463	69.087524
303.223602	1140.035889	3422.383301	2721.522949	69.292130
303.596375	1119.556274	3497.475586	2771.584229	69.473671
303.969116	1101.352051	3251.719238	2635.052979	71.322746
304.341766	1110.454102	3319.984863	2726.073975	73.120499
304.714478	1135.484863	3324.535889	2621.399902	67.879417
305.087067	1051.290649	3224.413086	2682.839111	75.078529
305.459656	1126.382813	3279.025391	2614.573486	69.133202
305.832214	1085.423462	3165.249512	2621.399902	73.851196
306.204681	1174.168701	3190.280273	2735.176025	77.426636
306.577148	1151.413574	3299.505127	2607.746826	67.796608
306.949646	1180.995239	3397.352539	2723.798340	69.609848
307.322021	1126.382813	3228.964111	2691.941162	74.458870
307.694397	1128.658325	3308.607178	2662.359375	70.354912
308.066742	1058.117188	3408.730225	2646.430664	67.570183
308.439026	1092.250000	3370.046387	2698.767578	70.529465
308.811279	1128.658325	3527.057129	2746.553711	67.457306
309.183502	1067.219238	3677.241699	2903.564453	70.357452
309.555695	1112.729614	3654.486328	2810.268311	66.786041
309.927887	1071.770264	3656.761963	2867.156250	69.454224
310.299988	1146.862427	3688.619141	2985.483398	72.336617
310.672058	1146.862427	3788.742188	2994.585449	69.939705
311.044128	1155.964600	3777.364502	2917.217773	67.187508
311.416168	1119.556274	3872.936523	2949.074951	66.446274
311.788147	1115.005249	3781.915527	3067.402100	73.208199
312.160065	1199.199463	3829.701416	2924.044189	65.570938
312.531982	1089.974487	3822.875000	2942.248291	67.776848
312.903870	1130.933838	3659.037354	2885.360352	69.396942
313.275696	1117.280762	3579.394287	2789.788574	67.929764
313.647491	1149.138062	3627.180176	2828.472412	67.768600
314.019318	1119.556274	3554.363525	2716.971924	65.607483
314.391022	1124.107300	3488.373291	2739.727051	68.334938
314.762726	1124.107300	3556.638916	2812.543701	69.410660
315.134369	1126.382813	3684.068115	2835.298828	66.814941
315.505981	1194.648438	3668.139648	3015.064941	73.597046
315.877594	1092.250000	3866.109863	2951.350586	67.022156
316.249146	1096.801025	3740.956299	2899.013428	68.158340
316.620636	1169.617676	3606.700439	2732.900391	64.145653
316.992157	1194.648438	3513.404053	2716.971924	65.652603
317.363586	1121.831787	3411.005615	2776.135498	72.266411
317.735016	1094.525513	3442.863037	2580.440674	63.275200
318.106354	1117.280762	3385.974854	2669.185791	68.405212
318.477722	1099.076538	3399.628174	2789.788574	73.491592
318.849060	1153.689087	3458.791504	2696.492188	66.929909
319.220306	1180.995239	3504.302002	2628.226563	62.291878
319.591522	1083.147949	3602.149414	2641.879639	61.878952
319.962738	1103.627563	3631.731201	2660.083740	61.566158
320.333923	1167.342163	3588.496338	2639.604248	60.808273
320.705017	1076.321289	3492.924316	2782.961914	70.621475
321.076111	1105.903076	3577.118652	2732.900391	65.837936
321.447144	1151.413574	3449.689453	2596.369141	62.871284
321.818176	1160.515625	3467.893799	2557.685303	60.552261
322.189178	1085.423462	3333.637939	2553.134277	65.283401
322.560120	1144.586914	3417.832275	2471.215576	58.358356
322.931030	1115.005249	3508.853027	2691.941162	65.874535
323.301910	1174.168701	3590.771729	2619.124512	59.792850
323.672729	1124.107300	3779.640137	2735.176025	60.668381
324.043549	1140.035889	3829.701416	2798.890625	61.675133
324.414337	1162.791138	3966.232666	2899.013428	61.931820
324.785095	1089.974487	4241.570801	3096.983887	63.682316
325.155792	1080.872437	4216.540039	2969.554688	60.232224
325.526428	1151.413574	4312.111816	3019.616211	59.107277
325.897034	1160.515625	4091.386475	3078.779541	65.450302
326.267670	1078.596802	4116.416992	3003.687500	63.370789
326.638184	1165.066650	3959.406250	2876.258301	61.237785
327.008728	1083.147949	4152.825684	2935.421875	60.340988
327.379211	1101.352051	4064.080078	2974.105713	63.210449
327.749634	1103.627563	4043.600586	2896.738037	60.990707
328.120026	1133.209351	4077.733398	2764.757813	55.409584
328.490417	1115.005249	3841.079102	2851.227539	63.689484
328.860748	1058.117188	3982.161377	2744.278076	57.665371
329.231079	1105.903076	3809.221924	2714.696289	59.511784
329.601318	1171.893188	3797.844238	2782.961914	61.351814
329.971558	1076.321289	3879.762939	2716.971924	58.522732
330.341736	1130.933838	3941.202148	2701.043213	55.870445
330.711914	1133.209351	3925.273438	2730.625000	57.212715
331.082062	1155.964600	4007.192139	2785.237549	57.142860
331.452148	1212.852539	3968.508301	2771.584229	56.564819
331.822174	1137.760376	3943.477539	2648.706299	53.852394
332.192200	1169.617676	4064.080078	2716.971924	53.459126
332.562134	1121.831787	4084.559814	2794.339600	56.451614
332.932129	1119.556274	4134.621094	2842.125488	57.132076
333.302063	1144.586914	4282.530273	2860.329590	54.677299
333.671906	1174.168701	4325.765137	2914.942139	55.234657
334.041718	1126.382813	4314.387207	2974.105713	57.958607
334.411499	1103.627563	4362.173340	2903.564453	55.237427
334.781281	1117.280762	4318.938477	2930.870850	56.645348
335.151001	1160.515625	4423.612305	2985.483398	55.927483
335.520721	1135.484863	4198.335938	2889.911377	57.280830
335.890350	1126.382813	4266.601563	2817.094727	53.840576
336.259979	1174.168701	4355.346680	2921.768799	54.935627
336.629547	1135.484863	4382.652832	2953.625977	55.991592
336.999084	1144.586914	4273.428223	2819.370361	53.527275
337.368622	1165.066650	4419.061523	2899.013428	53.286709
337.738098	1096.801025	4421.336914	2807.992676	51.471596
338.107513	1112.729614	4328.040527	2842.125488	53.786270
338.476898	1165.066650	4355.346680	2826.196777	52.068474
338.846252	1087.698975	4371.275391	2839.849854	53.361050
339.215576	1080.872437	4507.806641	2955.901611	54.714481
339.584869	1124.107300	4243.846191	2876.258301	56.163387
339.954132	1137.760376	4485.051270	2894.462402	52.481304
340.323334	1035.361938	4312.111816	2771.584229	52.986107
340.692505	1126.382813	4237.019531	2794.339600	53.621075
341.061646	1130.933838	4082.284424	2757.931152	55.127213
341.430786	1130.933838	4300.734375	2817.094727	53.194542
341.799896	1146.862427	4382.652832	2803.441650	51.195503
342.168915	1108.178589	4437.265625	2844.401123	52.153114
342.537903	1158.240112	4523.735352	2867.156250	50.777554
342.906830	1062.668213	4566.970215	2858.054199	51.233768
343.275757	1108.178589	4687.572754	2846.676514	48.569614
343.644684	1176.444214	4758.113770	2869.431641	47.268108
344.013550	1155.964600	4849.134766	2985.483398	49.537895
344.382355	1140.035889	4749.011719	2985.483398	51.134937
344.751129	1117.280762	5090.339844	3124.290039	50.515465
345.119873	1142.311401	5306.514648	3060.575439	46.065575
345.488586	1126.382813	5304.238770	3228.964111	50.326801
345.857269	1169.617676	5497.658203	3224.413086	47.476345
346.225891	1126.382813	5720.659180	3379.148438	49.034176
346.594482	1178.719727	5527.240234	3338.188965	49.659863
346.963043	976.198425	5600.056641	3292.678711	50.098423
347.331543	1074.045776	5397.535156	3124.290039	47.421055
347.700043	1115.005249	5254.177734	3181.177979	49.917538
348.068512	1135.484863	5133.574707	2987.758789	46.328972
348.436951	1080.872437	5067.584961	2965.003662	47.260273
348.805328	1105.903076	4824.104004	3071.953125	52.876381
349.173645	1153.689087	4846.859375	3058.300049	51.571163
349.541931	1169.617676	4924.227051	2971.830078	47.999996
349.910217	1096.801025	4937.880371	2933.146240	47.808052
350.278473	1085.423462	5147.228027	3076.504150	49.019608
350.646667	1092.250000	5026.625488	3137.943115	51.995369
351.014801	1128.658325	5249.626465	3192.555664	50.082829
351.382935	1144.586914	5279.208496	3008.238525	45.074299
351.751007	1087.698975	5204.116211	2990.034424	46.213379
352.119049	1140.035889	5267.830566	2999.136475	45.038589
352.487091	1112.729614	5315.616699	3028.718262	45.587440
352.855072	1069.494751	5440.770020	3106.085938	46.590321
353.222992	1149.138062	5192.738281	3060.575439	47.270683
353.590881	1201.474976	5565.923828	3026.442627	41.814392
353.958740	1126.382813	5556.821777	3219.861816	47.252182
354.326599	1158.240112	5759.343262	3226.688477	44.955486
354.694397	1121.831787	5825.333008	3219.861816	44.605709
355.062134	1140.035889	6059.711914	3438.312012	46.716007
355.429840	1133.209351	6241.753418	3297.229736	42.360809
355.797516	1103.627563	6294.090332	3365.495361	43.577377
356.165192	1167.342163	6118.875488	3486.097900	46.829048
356.532776	1160.515625	6512.540527	3618.078125	45.918369
356.900360	1135.484863	6608.112305	3684.068115	46.569645
357.267883	1101.352051	6705.959961	3620.353516	44.945187
357.635376	1124.107300	7195.196777	3747.782715	43.215889
358.002808	1144.586914	7529.698242	3900.242676	43.157520
358.370270	1128.658325	7525.147461	4007.192139	45.001774
358.737640	1117.280762	7591.137207	4118.692871	46.362041
359.105011	1115.005249	7613.892578	4080.008789	45.623249
359.472321	1137.760376	7504.667480	4023.120850	45.318085
359.839569	1165.066650	7406.820313	3761.435791	41.596786
360.206787	1099.076538	7174.717285	3695.445801	42.734081
360.574005	1121.831787	7306.697266	3948.028564	45.695366
360.941193	1108.178589	8005.282227	3970.783691	41.504452
361.308319	1180.995239	8314.752930	4173.305176	41.945774
361.675415	1071.770264	8747.101563	4318.938477	42.306557
362.042450	1201.474976	9238.614258	4653.439941	42.950169
362.409424	1135.484863	9655.035156	4894.645020	44.123924
362.776428	1099.076538	10223.915039	4956.084473	42.269325
363.143402	1049.015137	9670.963867	4774.042480	43.204006
363.510284	1144.586914	8986.031250	4521.459961	43.064426
363.877136	1096.801025	8194.150391	4291.632324	45.014427
364.243988	1146.862427	7582.035156	3954.855225	43.635078
364.610779	1103.627563	7247.533691	3945.753174	46.259258
364.977539	1146.862427	7361.309570	3718.200928	41.376781
365.344269	1137.760376	6928.960938	3677.241699	43.850689
365.710938	1140.035889	6940.338379	3524.781738	41.114162
366.077576	1153.689087	6803.807129	3467.893799	40.958515
366.444183	1089.974487	6742.368164	3629.455566	44.927532
366.810760	1142.311401	6580.806152	3547.536865	44.225945
367.177277	1103.627563	6665.000488	3449.689453	42.184944
367.543823	1062.668213	6787.878418	3424.658691	41.255962
367.910248	1094.525513	6567.152832	3454.240479	43.118500
368.276642	1146.862427	6617.214355	3456.516113	42.221302
368.643036	1180.995239	6564.877441	3456.516113	42.265430
369.009399	1128.658325	6485.234375	3513.404053	44.519962
369.375671	1121.831787	6321.396973	3442.863037	44.638947
369.741974	1153.689087	6398.764648	3472.444824	44.208244
370.108215	1064.943726	6514.815918	3317.709229	41.336121
370.474396	1105.903076	6341.876465	3297.229736	41.851368
370.840546	1135.484863	6419.244141	3297.229736	40.913010
371.206665	1115.005249	6437.448242	3401.903564	42.967083
371.572784	1155.964600	6621.765625	3376.872803	40.632805
371.938843	1105.903076	6726.439453	3413.281250	41.052635
372.304840	1076.321289	6767.398926	3524.781738	43.022793
372.670807	1165.066650	6776.500977	3476.995850	41.200325
373.036713	1231.056763	6899.378906	3483.822266	39.743076
373.402649	1110.454102	6678.653320	3438.312012	41.806297
373.768524	1083.147949	6771.949707	3456.516113	41.720001
374.134308	1135.484863	6851.593262	3313.158203	38.097130
374.500122	1144.586914	6865.246094	3529.332764	41.686558
374.865875	1060.392700	6944.889648	3458.791504	40.757927
375.231567	1158.240112	6799.256348	3397.352539	39.693420
375.597260	1128.658325	7097.349609	3620.353516	41.746090
375.962891	1087.698975	7308.972656	3740.956299	42.648140
376.328461	1201.474976	7242.982910	3715.925537	41.619587
376.694031	1092.250000	7393.166992	3679.517090	41.061756
377.059540	1092.250000	7786.832031	3816.048340	40.686607
377.425049	1087.698975	8210.079102	3934.375488	39.968052
377.790497	1115.005249	8298.824219	4061.804688	41.019955
378.155945	1101.352051	8606.019531	4248.397461	41.934509
378.521301	1099.076538	8460.386719	4157.376465	41.545593
378.886597	1076.321289	8371.640625	4198.335938	42.794762
379.251892	1117.280762	8016.659668	3968.508301	41.325859
379.617157	1078.596802	7784.556641	3961.681641	42.992874
379.982422	1110.454102	7682.158203	3831.977051	41.412743
380.347595	1051.290649	7456.881836	3825.150391	43.303730
380.712738	1119.556274	7370.412109	3740.956299	41.936657
381.077820	1128.658325	7481.912598	3768.262451	41.547276
381.442902	1130.933838	7402.269043	3720.476563	41.291729
381.807953	1153.689087	7545.626953	3750.058350	40.619434
382.172974	1112.729614	7363.585449	3720.476563	41.718239
382.537933	1069.494751	7356.758789	3825.150391	43.829170
382.902832	1176.444214	7493.290039	3756.884766	40.850143
383.267700	1142.311401	7616.167969	3941.202148	43.233746
383.632538	1105.903076	7620.719238	4048.151611	45.162418
383.997345	1153.689087	7739.046387	4011.743164	43.400139
384.362152	1026.259888	8103.129395	4091.386475	43.311897
384.726898	1089.974487	8080.374512	4059.529053	42.480469
385.091553	1133.209351	8212.354492	4032.222900	40.951466
385.456238	1108.178589	8175.946289	4102.764160	42.369610
385.820862	1133.209351	8094.027344	4225.642090	44.426281
386.185425	1117.280762	8212.354492	4309.836426	44.996792
386.549988	1092.250000	8296.548828	4143.723145	42.356281
386.914490	1155.964600	8580.989258	4200.611328	41.005207
387.278961	1199.199463	8560.508789	4284.805664	41.916538
387.643372	1210.577026	8635.601563	4264.326172	41.127796
388.007782	1115.005249	8535.478516	4421.336914	44.556885
388.372101	1146.862427	8592.366211	4375.826660	43.367977
388.736450	1119.556274	8646.979492	4405.408203	43.651749
389.100739	1151.413574	8631.050781	4400.857422	43.443871
389.464966	1137.760376	8426.253906	4230.193359	42.428974
389.829163	1135.484863	8369.365234	4184.682617	42.151619
390.193329	1053.566162	8526.375977	4298.458984	43.422661
390.557495	1105.903076	8478.590820	4343.969238	43.919754
390.921570	1146.862427	8590.090820	4380.377441	43.442375
391.285614	1085.423462	8883.632813	4526.010742	44.120224
391.649597	1055.841675	9202.206055	4894.645020	47.122902
392.013550	1064.943726	9568.565430	4931.053711	45.464272
392.377502	1058.117188	9871.208984	4901.471680	43.609604
392.741455	1176.444214	9925.821289	4960.635254	43.250977
393.105316	1080.872437	9859.832031	4992.492676	44.556759
393.469086	1151.413574	9618.625977	4946.982422	44.826660
393.832886	1062.668213	9641.381836	4862.788086	44.297081
394.196655	1130.933838	9586.769531	4978.839355	45.505917
394.560333	1124.107300	9773.362305	5012.972168	44.961845
394.924042	1160.515625	9937.199219	5056.207031	44.386829
395.287659	1142.311401	9975.882813	5108.544434	44.899540
395.651245	1128.658325	9814.321289	5047.104980	45.113964
396.014771	1146.862427	9434.309570	5081.237793	47.473911
396.378296	1105.903076	9108.910156	4855.961426	46.858116
396.741791	1099.076538	9036.092773	4739.909668	45.871559
397.105255	1130.933838	8890.459961	4928.777832	48.944275
397.468628	1137.760376	8617.397461	4721.705566	47.916031
397.832001	1089.974487	8653.805664	4694.399414	47.653427
398.195313	1064.943726	8692.489258	4833.206055	49.403339
398.558624	1042.188477	8854.051758	4810.451172	48.237694
398.921844	1137.760376	8774.408203	4789.971191	47.824791
399.285095	1135.484863	8672.009766	4967.461914	50.845409
399.648254	1160.515625	8926.868164	4899.196289	48.139465
400.011383	1037.637451	8958.725586	5019.798828	50.272911
400.374451	1158.240112	8801.714844	5124.472656	51.890438
400.737549	1135.484863	8815.367188	5110.819824	51.762966
401.100586	1158.240112	8617.397461	5165.432129	53.721779
401.463562	1121.831787	8844.949219	5103.993164	51.561581
401.826508	1117.280762	8988.307617	5336.096191	53.599300
402.189392	1121.831787	8797.163086	5206.391602	53.216724
402.552246	1158.240112	8883.632813	5372.504395	54.550808
402.915070	1089.974487	8963.276367	5363.402344	54.277454
403.277893	1112.729614	9231.788086	5534.066406	54.456276
403.640656	1103.627563	9359.216797	5547.719727	53.831318
404.003326	1167.342163	9682.340820	5950.486816	56.173164
404.366028	1174.168701	9789.290039	6000.548340	56.022194
404.728699	1117.280762	10121.516602	6073.365234	55.041698
405.091248	1149.138062	10430.987305	6391.937988	56.484428
405.453857	1119.556274	10622.130859	6369.182617	55.244255
405.816345	1105.903076	10394.579102	6585.357422	58.990692
406.178833	1121.831787	10248.945313	6785.603027	62.054356
406.541260	1115.005249	10394.579102	6790.154297	61.157429
406.903687	1171.893188	10085.108398	6599.010254	60.888435
407.266052	1203.750488	9932.648438	6651.347168	62.408752
407.628387	1174.168701	9880.311523	6719.612793	63.695766
407.990662	1153.689087	9684.616211	6758.296875	65.697525
408.352905	1126.382813	9896.240234	6822.011230	64.945511
408.715118	1117.280762	9914.444336	6981.297852	66.658043
409.077332	1130.933838	9529.880859	6881.174805	68.463829
409.439484	1167.342163	9816.596680	7051.838867	68.034721
409.801575	1146.862427	9764.259766	7122.379883	69.342484
410.163605	1167.342163	9809.770508	7370.412109	71.774612
410.525635	1169.617676	10219.364258	7443.228516	69.323608
410.887604	1160.515625	10114.690430	7638.923340	72.350693
411.249573	1169.617676	10349.068359	7538.800293	69.385223
411.611481	1046.739624	10235.292969	7707.188965	72.486374
411.973328	1169.617676	10267.149414	7839.168945	73.311661
412.335144	1126.382813	10201.160156	7902.883789	74.674019
412.696930	1115.005249	10219.364258	7859.648926	74.081474
413.058685	1096.801025	10103.312500	7791.383301	74.330467
413.420410	1185.546387	10155.649414	7834.618164	74.124802
413.782104	1103.627563	9934.923828	8164.568848	79.953629
414.143707	1101.352051	10221.639648	8112.231445	76.871254
414.505310	1199.199463	10246.669922	8146.364258	76.785713
414.866852	1158.240112	10201.160156	8248.762695	78.409660
415.228394	1112.729614	10567.518555	8223.732422	75.210594
415.589874	1071.770264	10681.294922	8471.763672	77.006859
415.951324	1151.413574	10544.763672	8690.213867	80.256783
416.312683	1196.923950	11029.449219	8792.612305	77.250633
416.674072	1169.617676	11241.073242	9024.715820	77.993675
417.035370	1162.791138	11332.093750	9213.583984	79.167603
417.396667	1089.974487	11839.535156	9281.849609	76.206604
417.757935	1062.668213	11850.912109	9206.756836	75.490402
418.119141	1108.178589	12192.240234	9425.207031	75.035927
418.480286	1135.484863	12686.028320	9732.402344	74.428688
418.841400	1158.240112	13109.275391	10173.853516	75.437927
419.202484	1144.586914	13525.695313	10219.364258	73.295357
419.563568	1049.015137	14215.178711	10688.121094	73.211189
419.924591	1133.209351	14847.773438	11295.685547	74.099884
420.285553	1089.974487	14786.333984	11063.582031	72.819405
420.646484	1124.107300	16060.625977	11611.982422	70.216331
421.007355	1076.321289	16636.332031	12007.922852	70.254463
421.368225	1171.893188	17164.253906	12635.966797	71.684685
421.729065	1151.413574	17617.082031	12629.140625	69.707024
422.089874	1092.250000	18195.064453	13122.928711	70.343269
422.450592	1099.076538	18108.593750	13118.376953	70.662209
422.811279	1074.045776	18092.666016	13129.754883	70.838341
423.171936	1151.413574	17962.960938	12972.744141	70.316727
423.532593	1103.627563	17792.296875	12592.732422	68.843742
423.893127	1101.352051	17967.511719	12790.702148	69.306526
424.253723	1203.750488	18302.013672	12922.682617	68.538727
424.614197	1151.413574	18393.035156	12811.181641	67.625702
424.974670	1110.454102	18729.812500	13177.541016	68.487663
425.335052	1108.178589	19203.119141	13541.624023	68.712273
425.695496	1144.586914	18263.330078	13059.213867	69.599899
426.055817	1162.791138	18358.902344	13350.480469	70.874680
426.416168	1140.035889	18479.503906	13141.132813	69.212601
426.776398	1130.933838	17225.693359	12292.363281	69.348221
427.136627	1076.321289	16615.853516	12149.005859	71.254944
427.496826	1212.852539	16404.228516	11980.617188	70.880775
427.856995	1124.107300	15714.747070	11650.666016	72.145973
428.217102	1074.045776	15057.121094	11320.715820	73.279091
428.577179	1067.219238	15182.274414	11332.093750	72.722885
428.937195	1108.178589	14877.355469	11002.143555	71.855896
429.297180	1185.546387	14313.025391	10785.968750	73.132263
429.657135	1165.066650	14167.392578	10801.897461	74.116211
430.017059	1130.933838	14408.597656	10958.908203	74.018852
430.376984	1124.107300	14117.331055	10890.642578	75.166374
430.736786	1108.178589	13805.584961	10906.571289	77.168457
431.096588	1151.413574	13566.655273	10858.785156	78.189140
431.456360	1133.209351	13876.125977	10574.344727	74.089279
431.816071	1130.933838	13266.286133	10453.742188	76.823547
432.175781	1124.107300	13630.369141	10597.100586	75.746002
432.535400	1108.178589	13589.410156	10658.539063	76.517776
432.895020	1110.454102	13659.951172	10660.815430	76.101547
433.254578	1096.801025	13659.951172	10890.642578	77.956894
433.614105	1055.841675	14055.891602	10945.254883	76.072121
433.973602	1094.525513	14492.791992	11206.940430	75.475548
434.333038	1119.556274	14215.178711	11318.440430	77.880104
434.692444	1115.005249	14588.364258	11329.818359	75.814896
435.051819	1062.668213	14688.486328	11541.441406	76.903809
435.411133	1110.454102	14825.017578	11743.962891	77.534431
435.770416	1096.801025	13978.524414	11175.083008	78.237061
436.129669	1099.076538	14740.824219	11873.667969	78.982483
436.488861	1062.668213	14283.444336	11245.624023	77.022377
436.848083	1180.995239	14151.463867	11445.870117	79.140358
437.207184	1199.199463	14219.729492	11384.430664	78.224396
437.566254	1135.484863	14490.516602	11916.902344	80.729263
437.925293	1110.454102	14465.485352	11616.534180	78.667580
438.284363	1146.862427	14474.587891	11664.319336	78.914116
438.643311	1121.831787	14895.559570	12003.372070	79.002144
439.002258	1140.035889	14784.058594	11855.462891	78.535690
439.361145	1260.638550	15532.705078	12187.689453	76.562500
439.719971	1124.107300	16067.452148	12524.466797	76.290550
440.078827	1105.903076	16160.749023	12658.722656	76.738213
440.437592	1128.658325	16809.271484	12799.804688	74.430420
440.796295	1049.015137	16959.457031	13200.295898	76.373001
441.155029	1103.627563	17767.265625	13650.849609	75.297012
441.513672	1110.454102	18297.462891	13869.298828	74.235405
441.872253	1187.821899	18154.105469	14024.035156	75.657188
442.230865	1076.321289	17605.705078	13514.318359	75.247803
442.589386	1085.423462	17739.960938	13527.970703	74.709656
442.947876	1121.831787	17587.500000	13593.960938	75.746269
443.306335	1160.515625	17435.041016	13311.796875	74.664429
443.664764	1158.240112	16292.728516	12979.570313	78.108551
444.023102	1105.903076	16809.271484	13034.183594	75.960014
444.381500	1071.770264	16688.669922	12802.080078	75.112923
444.739777	1115.005249	16829.751953	12979.570313	75.499565
445.098022	1112.729614	17027.722656	12861.243164	73.820412
445.456238	1074.045776	16816.099609	13111.550781	76.467178
445.814423	1092.250000	17423.662109	13022.805664	73.052811
446.172577	1124.107300	18329.320313	14094.576172	75.386856
446.530701	1117.280762	18502.259766	13769.176758	72.774872
446.888733	1146.862427	18923.230469	14055.891602	72.619049
447.246765	1071.770264	19824.337891	14945.621094	73.983734
447.604736	1135.484863	19398.814453	14174.218750	71.392975
447.962677	1069.494751	19378.335938	14319.852539	72.371361
448.320587	1103.627563	19612.712891	14645.251953	73.162033
448.678436	1171.893188	19376.060547	14663.456055	74.112495
449.036255	1101.352051	19171.263672	14078.647461	71.817146
449.394043	1080.872437	18165.482422	13475.633789	72.549286
449.751770	1121.831787	18577.351563	13744.145508	72.311302
450.109467	1130.933838	18195.064453	13277.664063	71.182823
450.467163	1121.831787	17692.173828	13334.551758	73.702278
450.824768	1137.760376	17526.060547	13072.867188	72.826988
451.182343	1140.035889	17180.181641	13332.276367	76.010780
451.539886	1087.698975	16511.179688	12515.364258	74.092651
451.897369	1074.045776	16818.375000	12788.426758	74.403809
452.254822	1108.178589	16527.107422	12565.425781	74.306374
452.612274	1115.005249	17064.130859	12604.109375	72.035950
452.969635	1119.556274	16850.232422	12472.129883	72.168373
453.326965	1121.831787	16579.445313	12558.599609	73.987930
453.684326	1110.454102	16574.892578	12358.353516	72.733963
454.041534	1042.188477	16290.453125	12249.128906	73.496498
454.398773	1144.586914	15771.634766	12060.259766	74.626633
454.755951	1112.729614	15605.521484	11960.137695	74.846916
455.113098	1096.801025	15077.600586	11637.013672	75.390633
455.470215	1094.525513	15207.305664	11903.249023	76.588196
455.827240	1121.831787	15088.978516	11582.401367	74.894104
456.184265	1099.076538	15048.019531	11505.033203	74.600327
456.541260	1160.515625	14916.039063	11605.156250	75.930519
456.898193	1099.076538	15207.305664	11468.625000	73.500000
457.255096	1115.005249	15352.938477	11607.431641	73.693466
457.611969	1146.862427	15141.315430	11618.809570	74.829269
457.968781	1115.005249	15109.458008	11291.133789	72.715446
458.325531	1149.138062	15318.805664	11773.544922	74.979927
458.682312	1137.760376	16374.647461	12101.219727	71.953407
459.039001	1128.658325	16679.568359	12645.069336	74.056190
459.395630	1176.444214	17664.867188	12888.549805	71.032295
459.752289	1128.658325	18577.351563	13625.818359	71.622330
460.108856	1115.005249	20338.605469	14640.701172	70.359856
460.465363	1190.097412	20923.414063	15043.467773	70.202950
460.821899	1112.729614	21157.792969	14813.640625	68.350555
461.178345	1124.107300	20495.615234	14649.802734	69.822624
461.534760	1069.494751	20183.869141	14497.342773	70.249992
461.891144	1074.045776	19822.062500	13914.809570	68.491318
462.247467	1130.933838	18272.431641	13480.185547	72.043015
462.603760	1108.178589	18226.921875	13336.827148	71.434265
462.960052	1076.321289	17271.203125	12747.467773	72.066879
463.316254	1042.188477	16859.333984	12538.119141	72.680183
463.672424	1128.658325	16349.617188	12453.925781	74.405746
464.028564	1112.729614	16115.238281	12042.055664	72.849991
464.384644	1121.831787	16010.564453	12069.362305	73.528961
464.740723	1087.698975	15917.267578	12087.566406	74.175232
465.096741	1078.596802	16167.575195	11976.066406	72.221390
465.452698	1160.515625	15687.440430	12108.045898	75.360275
465.808655	1080.872437	15869.482422	12167.209961	74.965378
466.164520	1176.444214	15928.645508	11987.443359	73.283974
466.520355	1149.138062	16392.851563	12658.722656	75.503815
466.876190	1080.872437	16515.730469	12344.700195	72.976555
467.231964	1124.107300	16388.300781	12572.251953	75.000000
467.587677	1210.577026	17095.988281	12792.977539	72.912186
467.943390	1153.689087	17398.632813	13200.295898	74.156036
468.299011	1165.066650	16822.925781	12742.916016	73.942734
468.654633	1060.392700	16722.802734	12733.814453	74.531456
469.010223	1121.831787	16768.312500	12676.926758	73.851082
469.365723	1135.484863	16190.330078	12271.883789	73.972183
469.721191	1169.617676	16538.484375	12595.007813	74.341141
470.076660	1110.454102	15651.032227	12155.832031	75.962440
470.432068	1092.250000	16035.594727	12410.690430	75.742348
470.787445	1130.933838	15753.430664	12112.597656	75.101151
471.142792	1135.484863	15707.919922	12110.321289	75.312294
471.498016	1130.933838	16269.973633	12221.822266	73.260185
471.853271	1153.689087	16044.697266	12280.985352	74.724937
472.208496	1064.943726	15944.574219	12397.037109	76.158432
472.563660	1137.760376	16101.584961	12485.782227	75.836372
472.918762	1130.933838	16356.443359	12265.056641	73.128082
473.273865	1155.964600	16870.710938	12774.773438	73.935707
473.628876	1108.178589	17596.601563	13152.509766	73.047195
473.983917	1128.658325	17155.150391	13047.835938	74.371719
474.338837	1144.586914	17239.345703	13084.244141	74.183510
474.693787	1160.515625	17255.273438	12975.019531	73.405914
475.048645	1062.668213	17146.048828	12827.110352	73.146576
475.403503	1146.862427	17264.376953	13172.990234	74.615273
475.758270	1069.494751	17598.876953	13220.775391	73.513214
476.113037	1117.280762	17073.232422	13204.847656	75.755852
476.467773	1155.964600	17755.888672	13382.337891	73.653191
476.822418	1187.821899	18370.279297	14092.300781	75.102638
477.177063	1162.791138	18236.023438	13987.625977	75.116615
477.531647	1085.423462	18741.189453	13985.350586	73.063538
477.886200	1117.280762	19159.884766	14308.474609	73.111366
478.240723	1053.566162	19487.560547	14749.925781	74.299469
478.595184	1221.954712	19899.429688	14865.977539	73.050682
478.949585	1105.903076	20202.074219	15027.539063	72.902756
479.303986	1144.586914	20570.708984	15148.141602	72.086212
479.658325	1067.219238	20618.494141	15430.306641	73.463684
480.012634	1039.912964	20866.525391	15585.041992	73.361641
480.366913	1124.107300	21510.498047	15719.297852	71.592812
480.721130	1117.280762	21774.458984	16033.319336	72.207535
481.075317	1185.546387	22186.328125	16122.064453	71.123627
481.429474	1174.168701	23121.566406	16932.150391	71.798859
481.783569	1169.617676	23977.162109	17514.683594	71.665169
482.137604	1108.178589	25519.964844	18299.738281	70.423195
482.491669	1030.810913	27715.843750	19655.949219	69.796196
482.845612	1158.240112	30471.500000	21276.119141	68.630646
483.199554	1099.076538	34078.199219	23685.896484	68.488243
483.553436	1228.781250	39191.292969	27470.087891	69.124260
483.907318	1076.321289	46238.582031	31711.658203	67.833931
484.261139	1124.107300	52971.847656	36410.609375	68.057938
484.614899	1174.168701	56059.730469	39280.039063	69.427856
484.968628	1185.546387	56178.058594	39063.867188	68.879051
485.322357	1128.658325	54141.464844	37015.898438	67.695412
485.675964	1133.209351	50912.503906	35022.539063	68.079170
486.029572	1083.147949	47458.261719	32571.804688	67.899902
486.383148	1137.760376	44158.757813	30389.580078	67.994286
486.736694	1190.097412	42135.820313	28723.898438	67.244629
487.090149	1153.689087	41844.550781	28446.285156	67.073029
487.443604	1121.831787	42311.035156	29238.166016	68.261421
487.796997	1180.995239	43730.957031	29868.486328	67.420723
488.150360	1060.392700	45353.406250	31051.757813	67.711281
488.503693	1115.005249	45690.183594	31372.605469	67.879929
488.856964	1153.689087	45214.597656	30992.593750	67.721939
489.210175	1080.872437	43407.835938	29527.158203	67.206062
489.563416	1101.352051	41471.367188	27925.191406	66.444962
489.916565	1060.392700	39239.082031	26530.296875	66.712364
490.269653	1160.515625	36629.058594	25360.679688	68.229935
490.622772	1099.076538	35306.980469	24111.417969	67.272003
490.975769	1165.066650	35072.601563	23974.886719	67.270653
491.328735	1121.831787	36212.636719	24837.308594	67.583168
491.681732	1069.494751	38310.667969	25795.304688	66.393753
492.034607	1083.147949	39716.941406	27251.636719	67.734711
492.387482	1185.546387	40822.843750	28068.548828	67.822487
492.740326	1119.556274	40385.941406	27076.421875	66.104546
493.093079	1135.484863	38711.160156	26305.019531	66.983589
493.445862	1103.627563	35589.144531	24138.724609	66.796440
493.798523	1176.444214	33186.195313	22925.873047	67.946259
494.151215	1128.658325	30680.847656	21442.232422	68.737968
494.503815	1076.321289	28628.328125	20092.849609	69.020477
494.856384	1151.413574	27258.462891	18736.638672	67.358147
495.208923	1074.045776	25824.884766	18033.501953	68.520737
495.561432	1021.708862	24709.880859	17414.560547	69.202690
495.913879	1162.791138	24639.339844	17218.865234	68.391968
496.266296	1051.290649	24532.390625	17105.089844	68.369026
496.618683	1155.964600	24648.441406	16993.589844	67.415733
496.970978	1180.995239	25073.962891	17375.876953	67.780960
497.323273	1180.995239	24837.308594	17359.947266	68.391693
497.675507	1140.035889	25403.914063	17610.255859	67.879585
498.027710	1092.250000	25426.669922	17844.634766	68.842346
498.379852	1133.209351	25199.117188	17589.775391	68.381241
498.731995	1249.260864	25349.300781	17303.060547	66.613167
499.084076	1233.332275	24147.826172	16977.660156	68.709038
499.436096	1135.484863	24684.849609	16877.537109	66.847038
499.788086	1158.240112	23786.019531	16586.271484	68.181816
500.140106	1228.781250	23654.039063	16276.800781	67.102997
500.491943	1160.515625	22611.849609	15691.991211	67.741592
500.843842	1151.413574	22413.880859	15717.022461	68.503853
501.195679	1133.209351	22154.470703	15116.285156	66.518730
501.547455	1103.627563	21685.712891	15154.968750	68.269760
501.899231	1103.627563	21556.007813	15166.345703	68.758339
502.250885	1064.943726	21298.875000	15100.356445	69.365723
502.602600	1115.005249	20868.800781	14916.039063	69.865227
502.954193	1076.321289	21328.457031	14897.834961	68.247185
503.305786	1064.943726	21307.976563	14711.242188	67.412323
503.657379	1103.627563	21460.437500	14720.343750	66.890221
504.008820	1146.862427	20850.597656	14647.527344	68.518303
504.360291	1135.484863	21296.599609	15045.743164	68.995476
504.711700	1074.045776	21408.099609	15063.947266	68.800354
505.063080	1108.178589	21615.171875	15339.286133	69.396362
505.414368	1128.658325	21521.875000	14797.711914	67.027451
505.765656	1119.556274	21394.447266	14895.559570	67.946129
506.116943	1151.413574	21774.458984	14547.404297	64.956413
506.468109	1171.893188	21282.945313	14517.822266	66.361168
506.819305	1101.352051	21182.822266	14608.843750	67.263458
507.170410	1096.801025	20952.996094	14561.057617	67.808846
507.521484	1174.168701	21203.302734	14269.791016	65.382866
507.872559	1155.964600	21708.468750	14490.516602	64.880424
508.223480	1162.791138	21733.500000	14677.109375	65.696899
508.574493	1183.270874	21692.539063	14642.976563	65.627434
508.925385	1103.627563	22197.705078	14863.702148	65.231926
509.276245	1105.903076	22397.951172	15082.152344	65.640694
509.627045	1128.658325	22477.593750	15264.193359	66.211899
509.977814	1087.698975	22905.392578	15416.653320	65.675842
510.328613	1165.066650	22816.646484	15726.124023	67.251709
510.679260	1119.556274	23030.546875	15610.072266	66.133553
511.029999	1137.760376	23233.068359	15573.664063	65.334702
511.380585	1126.382813	23055.576172	15808.042969	66.950294
511.731140	1153.689087	23608.527344	15646.481445	64.541954
512.081726	1151.413574	23781.468750	16017.390625	65.691299
512.432129	1078.596802	24288.908203	16258.595703	65.401962
512.782654	1076.321289	23997.642578	16304.106445	66.435028
513.133057	1149.138062	24323.041016	16131.166992	64.650436
513.483398	1162.791138	23963.509766	16201.708008	65.958084
513.833801	1149.138062	24245.673828	16297.280273	65.586212
514.183960	1235.607788	23624.457031	16051.523438	66.175423
514.534302	1099.076538	23799.671875	15682.889648	64.244186
514.884460	1105.903076	23524.333984	15933.196289	66.138847
515.234619	1085.423462	23360.496094	15753.430664	65.849426
515.584717	1076.321289	23663.140625	15723.848633	64.849884
515.934753	1110.454102	23610.804688	15532.705078	64.097893
516.284851	1108.178589	23558.466797	15680.614258	64.909790
516.634766	1089.974487	24161.480469	15905.890625	64.217377
516.984741	1069.494751	24311.664063	16156.197266	64.910904
517.334595	1067.219238	24819.105469	16554.414063	65.204063
517.684448	1158.240112	25633.742188	17332.642578	66.084045
518.034363	1039.912964	26398.316406	17585.224609	65.245872
518.384094	1142.311401	27431.402344	18165.482422	64.753746
518.733826	1171.893188	28783.062500	19150.783203	65.114555
519.083496	1085.423462	29151.697266	19257.732422	64.747849
519.433167	1126.382813	30034.599609	19674.152344	64.160889
519.782776	1149.138062	29845.730469	19537.621094	64.078979
520.132324	1105.903076	29472.544922	19219.048828	63.853683
520.481873	1146.862427	28835.400391	19285.039063	65.507889
520.831299	1130.933838	28207.355469	18693.404297	64.862595
521.180786	1094.525513	27611.169922	17790.021484	62.962326
521.530151	1085.423462	26832.941406	17776.369141	64.825455
521.879517	1167.342163	26209.449219	17589.775391	65.579277
522.228882	1087.698975	26798.808594	17464.623047	63.695904
522.578064	1167.342163	26188.968750	16961.732422	63.122955
522.927307	1144.586914	26498.439453	17275.753906	63.624126
523.276489	1055.841675	26211.724609	17155.150391	63.998184
523.625610	1069.494751	26625.869141	17157.427734	62.950760
523.974792	1146.862427	27244.810547	17906.072266	64.216576
524.323792	1119.556274	26987.675781	17935.654297	65.007034
524.672852	1130.933838	27533.800781	18306.564453	65.052139
525.021790	1083.147949	28635.154297	18745.740234	64.106377
525.370728	1092.250000	29734.230469	19451.152344	64.097878
525.719604	1171.893188	31470.453125	20497.890625	63.785202
526.068420	1171.893188	33006.429688	21510.498047	63.888493
526.417297	1165.066650	34314.855469	22484.421875	64.312187
526.765991	1037.637451	35332.011719	23205.761719	64.640701
527.114746	1083.147949	36481.148438	23831.529297	64.264595
527.463379	1146.862427	38099.042969	24184.234375	62.343742
527.812012	1155.964600	40194.800781	25770.273438	63.050827
528.160706	1155.964600	43064.230469	27606.619141	63.115601
528.509155	1180.995239	47123.761719	30915.226563	64.720161
528.857727	1151.413574	52205.000000	33925.738281	64.195930
529.206177	1140.035889	55520.433594	36931.703125	65.817223
529.554565	1076.321289	56421.539063	37389.082031	65.611382
529.902893	1135.484863	55429.410156	37045.480469	66.139992
530.251221	1080.872437	53292.695313	34810.917969	64.602318
530.599548	1112.729614	49820.253906	32100.771484	63.620647
530.947876	1142.311401	46748.300781	29675.066406	62.563618
531.296021	1142.311401	43280.406250	27706.742188	63.041370
531.644165	1194.648438	40602.117188	26423.347656	64.020096
531.992249	1103.627563	38679.300781	25119.474609	63.913288
532.340454	1121.831787	37277.582031	24154.652344	63.704445
532.688354	1149.138062	36927.152344	23933.927734	63.683769
533.036438	1117.280762	38023.953125	24236.572266	62.642578
533.384338	1201.474976	39753.347656	25349.300781	62.637234
533.732239	1053.566162	41334.835938	26869.349609	64.088799
534.080139	1219.679199	42292.828125	27212.953125	63.285320
534.427917	1133.209351	41801.316406	26644.072266	62.729412
534.775757	1128.658325	40153.839844	25656.496094	62.851315
535.123474	1178.719727	38340.250000	24546.042969	62.880413
535.471191	1185.546387	36497.078125	23365.046875	62.810928
535.818848	1194.648438	35627.828125	22582.267578	62.113403
536.166382	1071.770264	34335.332031	22199.980469	63.517582
536.513977	1044.463989	34048.617188	21703.917969	62.596527
536.861511	1162.791138	34137.363281	22102.132813	63.501484
537.208984	1051.290649	34396.773438	22250.042969	63.573082
537.556396	1185.546387	33971.250000	21883.683594	63.131592
537.903809	1105.903076	33286.316406	21394.447266	63.046253
538.251160	1149.138062	32298.742188	21089.527344	64.014900
538.598389	1176.444214	31688.902344	20213.451172	62.390934
538.945740	1085.423462	30273.529297	19457.978516	62.945347
539.292969	1135.484863	29722.853516	19228.150391	63.289021
539.640137	1076.321289	29379.250000	19073.416016	63.587387
539.987244	1133.209351	29527.158203	19043.833984	63.079021
540.334351	1119.556274	30134.722656	19480.734375	63.281311
540.681458	1080.872437	31845.914063	20593.462891	63.424553
541.028442	1185.546387	34210.179688	22002.009766	63.033138
541.375366	1194.648438	37277.582031	23756.437500	62.527592
541.722290	1137.760376	40238.035156	26006.927734	63.603565
542.069153	1124.107300	43157.527344	27208.402344	62.056084
542.416016	1140.035889	42868.535156	27879.681641	64.080055
542.762756	1094.525513	42276.902344	27210.677734	63.415848
543.109558	1126.382813	40920.691406	25993.273438	62.488560
543.456299	1105.903076	39582.683594	25497.210938	63.392281
543.802917	1060.392700	38246.953125	24514.185547	63.070621
544.149536	1078.596802	36767.863281	23474.273438	62.751854
544.496094	1174.168701	34230.660156	22231.837891	63.702072
544.842651	1099.076538	32988.226563	20987.128906	62.366203
545.189148	1044.463989	31199.666016	20040.511719	62.994263
545.535583	1105.903076	29854.832031	19426.121094	63.724873
545.882019	1126.382813	29354.218750	18763.945313	62.482872
546.228333	1124.107300	28368.917969	18454.474609	63.609791
546.574707	1130.933838	28441.734375	18258.779297	62.714550
546.920898	1155.964600	28580.541016	18149.554688	61.964821
547.267212	1142.311401	28548.683594	18019.849609	61.582535
547.613342	1119.556274	28484.968750	18170.033203	62.306667
547.959473	1153.689087	27831.894531	17794.572266	62.376320
548.305664	1103.627563	27099.177734	17532.888672	63.200283
548.651611	1087.698975	26446.103516	16929.875000	62.473080
548.997742	1126.382813	25563.201172	16128.891602	61.393051
549.343689	1235.607788	24090.939453	15780.736328	63.639980
549.689575	1105.903076	23572.119141	15154.968750	62.534184
550.035522	1133.209351	22930.423828	14993.406250	63.587009
550.381287	1074.045776	21835.898438	14317.577148	63.787807
550.727173	1144.586914	21517.324219	13917.084961	62.694065
551.072876	1078.596802	21048.568359	13753.248047	63.468552
551.418640	1144.586914	21046.291016	13559.828125	62.382809
551.764282	1099.076538	20652.626953	13373.235352	62.772022
552.109863	1142.311401	20684.484375	13644.022461	63.972980
552.455505	1121.831787	20916.587891	13566.655273	62.869293
552.801025	1105.903076	20816.464844	13591.685547	63.345642
553.146545	1146.862427	21205.578125	13714.563477	62.654568
553.491943	1169.617676	21451.333984	13973.973633	63.132504
553.837341	1105.903076	21485.466797	13994.453125	63.242519
554.182800	1192.372925	21210.128906	14128.708984	64.624306
554.528015	1108.178589	21025.812500	13721.390625	63.326855
554.873352	1126.382813	20516.095703	13373.235352	63.161598
555.218628	1137.760376	20395.492188	13395.991211	63.653549
555.563721	1117.280762	20147.460938	13129.754883	63.123283
555.908875	1137.760376	19967.695313	12993.223633	62.960720
556.254028	1174.168701	19578.580078	12872.621094	63.563301
556.599121	1071.770264	19239.529297	12624.589844	63.589676
556.944031	1226.505737	19230.425781	12858.967773	64.610718
557.289063	1133.209351	18889.097656	12517.639648	64.116364
557.633972	1135.484863	18900.476563	12130.801758	61.893169
557.978882	1192.372925	18684.300781	12290.087891	63.444778
558.323792	1128.658325	18613.759766	12342.424805	64.133263
558.668518	1089.974487	18247.400391	12110.321289	64.230766
559.013306	1171.893188	18381.656250	12219.546875	64.194099
559.358032	1174.168701	18408.962891	11939.657227	62.463688
559.702637	1135.484863	18286.085938	12135.352539	64.136917
560.047363	1185.546387	18354.351563	11919.177734	62.518219
560.391846	1067.219238	18331.595703	12062.536133	63.687885
560.736450	1103.627563	18085.839844	11723.483398	62.535168
561.080933	1144.586914	18281.533203	12162.658203	64.294258
561.425354	1119.556274	18042.603516	12151.281250	65.187576
561.769775	1155.964600	18431.718750	12274.159180	64.357216
562.114136	1117.280762	18577.351563	12164.934570	63.273827
562.458496	1142.311401	18684.300781	12331.046875	63.782589
562.802673	1174.168701	18695.679688	12394.761719	64.038956
563.146912	1128.658325	18506.810547	12230.923828	63.886341
563.491150	1126.382813	18074.460938	12158.107422	65.091301
563.835266	1089.974487	18276.982422	12280.985352	65.113197
564.179443	1076.321289	18261.054688	12146.730469	64.420021
564.523438	1060.392700	18361.177734	12142.178711	64.053658
564.867493	1064.943726	18324.769531	12021.576172	63.480553
565.211426	1049.015137	18402.136719	12610.936523	66.627335
565.555359	1115.005249	18757.117188	12333.322266	63.588291
565.899231	1133.209351	19014.251953	12649.620117	64.405701
566.243042	1108.178589	19412.468750	13025.081055	65.104416
566.586914	1121.831787	20101.951172	13359.583008	64.476685
566.930603	1151.413574	20329.501953	13507.491211	64.428101
567.274292	1178.719727	20488.789063	13803.309570	65.378273
567.617981	1108.178589	20543.402344	13716.839844	64.875305
567.961609	1112.729614	20354.533203	13719.115234	65.515617
568.305237	1187.821899	19815.234375	13370.959961	65.404350
568.648682	1155.964600	19694.632813	13211.673828	65.030067
568.992188	1092.250000	19665.050781	12981.845703	64.016167
569.335632	1119.556274	19109.824219	13116.101563	66.683525
569.679016	1080.872437	19077.966797	12990.948242	66.177773
570.022461	1064.943726	18861.791016	12601.833984	64.825470
570.365662	1112.729614	19125.751953	12856.692383	65.197075
570.708984	1030.810913	18968.742188	12883.999023	66.078903
571.052185	1089.974487	19105.273438	12781.600586	64.898315
571.395386	1115.005249	19050.660156	12852.141602	65.440247
571.738525	1117.280762	19389.712891	13352.755859	66.961395
572.081604	1180.995239	19935.837891	13304.969727	64.644508
572.424683	1121.831787	20563.880859	13814.686523	65.285583
572.767578	1201.474976	20716.341797	13944.391602	65.298508
573.110596	1176.444214	20566.156250	13989.902344	66.083794
573.453552	1155.964600	20331.779297	13853.371094	66.215736
573.796387	1146.862427	20379.564453	13675.879883	65.144348
574.139282	1192.372925	20088.296875	13671.329102	66.040466
574.481995	1080.872437	20097.400391	13334.551758	64.436996
574.824768	1089.974487	20086.021484	13325.450195	64.410645
575.167480	1112.729614	20004.103516	13366.409180	64.863892
575.510132	1137.760376	19564.927734	13175.265625	65.324768
575.852722	1110.454102	19749.244141	13334.551758	65.584183
576.195251	1167.342163	19558.101563	13339.102539	66.184113
576.537842	1108.178589	19214.498047	13154.786133	66.532608
576.880188	1130.933838	18980.119141	12886.274414	65.859253
577.222717	1183.270874	18534.117188	12772.498047	66.793442
577.565063	1062.668213	18386.208984	12117.148438	63.811897
577.907410	1146.862427	18295.187500	12401.587891	65.631638
578.249756	1144.586914	17689.898438	11798.575195	64.392792
578.591919	1169.617676	17419.111328	11607.431641	64.234703
578.934204	1130.933838	16898.017578	11241.073242	64.121811
579.276306	1089.974487	16588.546875	11147.776367	64.895020
579.618469	1140.035889	16265.422852	10981.663086	65.066948
579.960571	1219.679199	16269.973633	11175.083008	66.147568
580.302551	1215.128052	15685.165039	10772.315430	66.048119
580.644531	1160.515625	15933.196289	10792.794922	65.203323
580.986511	1137.760376	15694.266602	10608.477539	65.061745
581.328369	1096.801025	15407.551758	10267.149414	64.080139
581.670227	1206.026001	15250.540039	10101.037109	63.334415
582.012024	1108.178589	15098.080078	10408.232422	66.476906
582.353821	1126.382813	15077.600586	10176.128906	64.867073
582.695496	1112.729614	14902.385742	10299.006836	66.617157
583.037231	1064.943726	14854.599609	10203.435547	66.270630
583.378845	1080.872437	15027.539063	10192.057617	65.328766
583.720398	1128.658325	14925.140625	10096.485352	65.000824
584.062012	1060.392700	14520.098633	9880.311523	65.528320
584.403442	1044.463989	14622.497070	9809.770508	64.555054
584.744934	1117.280762	14640.701172	9934.923828	65.202759
585.086365	1085.423462	14488.241211	9693.718750	64.227501
585.427734	1135.484863	14845.498047	9930.373047	64.149376
585.768982	1135.484863	14590.639648	9693.718750	63.605621
586.110291	1149.138062	14440.455078	9857.555664	65.519600
586.451599	1167.342163	14160.566406	9664.136719	65.394043
586.792725	1108.178589	14638.425781	9866.658203	64.732590
587.133850	1142.311401	14456.383789	9459.339844	62.467953
587.474915	1105.903076	14392.668945	9846.178711	65.781815
587.815979	1162.791138	14583.812500	9686.891602	63.513054
588.157043	1137.760376	14419.975586	10050.975586	67.106392
588.497925	1124.107300	14558.782227	9798.392578	64.566391
588.838867	1135.484863	14567.883789	9830.250000	64.729805
589.179749	1028.535400	14884.181641	9716.473633	62.703236
589.520569	1174.168701	14668.006836	9889.413086	64.586845
589.861450	1055.841675	15025.263672	10046.424805	64.359016
590.202087	1074.045776	15016.162109	10160.200195	65.170555
590.542847	1110.454102	14879.630859	10073.730469	65.096680
590.883484	1053.566162	15118.560547	10116.965820	64.439415
591.224121	1128.658325	15070.774414	10082.833008	64.223930
591.564636	1140.035889	14982.029297	9964.505859	63.751438
591.905151	1128.658325	14870.528320	10010.015625	64.629906
592.245667	1128.658325	14886.457031	9962.230469	64.207741
592.585999	1142.311401	14731.721680	9823.422852	63.881443
592.926453	1085.423462	14572.435547	9698.269531	63.860298
593.266724	1112.729614	14768.129883	9566.289063	61.906345
593.607056	1135.484863	14495.067383	9693.718750	64.060646
593.947388	1130.933838	14636.149414	9589.044922	62.628479
594.287476	1160.515625	14690.762695	9898.515625	64.581230
594.627686	1142.311401	14820.466797	9812.045898	63.383797
594.967773	1201.474976	15230.060547	9953.127930	62.384430
595.307861	1112.729614	15302.876953	10076.005859	63.165493
595.647888	1128.658325	14977.477539	10066.904297	64.541573
595.987854	1085.423462	15439.408203	10214.812500	63.601772
596.327820	1128.658325	15582.766602	10412.783203	64.231735
596.667725	1101.352051	16076.554688	10469.670898	62.558872
597.007568	1142.311401	16638.607422	10924.775391	63.127754
597.347351	1146.862427	16995.865234	11159.154297	63.173008
597.687073	1069.494751	17357.671875	11357.124023	63.160103
598.026794	1067.219238	17284.855469	11505.033203	64.360886
598.366455	1149.138062	16879.812500	11204.664063	63.923046
598.706116	1121.831787	16597.648438	11140.950195	64.740479
599.045654	1117.280762	16072.003906	10599.375977	63.405361
599.385193	1112.729614	15373.418945	10312.660156	64.512527
599.724731	1137.760376	15220.958984	9903.066406	62.239452
600.064087	1146.862427	14663.456055	9884.862305	64.646461
600.403564	1124.107300	14344.882813	9368.319336	62.358006
600.742920	1126.382813	14297.097656	9409.278320	62.888733
601.082153	1128.658325	13801.033203	9350.115234	64.876999
601.421387	1087.698975	14024.035156	9145.318359	62.286720
601.760620	1151.413574	14096.851563	9129.389648	61.627705
602.099854	1158.240112	14137.810547	8961.000977	60.115707
602.438843	1142.311401	13700.911133	9061.124023	63.054901
602.778015	1115.005249	14008.106445	9247.716797	63.078007
603.117065	1133.209351	14506.445313	9245.441406	60.660202
603.456055	1160.515625	14658.905273	9554.912109	62.188133
603.794983	1055.841675	15182.274414	9987.260742	63.224873
604.133850	1115.005249	15739.777344	10157.924805	61.832893
604.472778	1110.454102	16188.054688	10376.375000	61.454876
604.811584	1105.903076	16713.701172	10628.958008	61.014725
605.150330	1112.729614	17410.009766	11077.235352	61.142139
605.489075	1128.658325	17257.548828	11268.378906	62.866821
605.827698	1128.658325	17321.263672	11095.439453	61.551437
606.166382	1071.770264	17027.722656	10913.397461	61.679974
606.504883	1165.066650	16841.128906	10822.376953	61.605461
606.843445	1135.484863	16194.881836	10551.589844	62.526447
607.181946	1103.627563	15719.297852	10292.180664	62.867817
607.520386	1158.240112	15391.623047	9830.250000	60.927258
607.858826	1108.178589	14891.007813	9718.749023	62.473171
608.197083	1194.648438	14595.190430	9682.340820	63.338425
608.535461	1121.831787	14401.771484	9336.461914	61.857433
608.873718	1074.045776	14174.218750	9325.083984	62.984192
609.211914	1096.801025	14356.260742	9347.839844	62.227566
609.550171	1078.596802	14909.211914	9561.738281	61.335968
609.888245	1119.556274	15207.305664	9584.493164	60.087219
610.226318	1160.515625	15566.837891	10073.730469	61.870163
610.564392	1076.321289	15755.706055	10098.761719	61.463341
610.902344	1051.290649	15500.847656	9996.363281	61.905514
611.240295	1076.321289	15268.744141	9873.484375	61.984928
611.578247	1115.005249	15082.152344	9702.820313	61.485821
611.916138	1069.494751	14825.017578	9541.258789	61.588089
612.253845	1133.209351	14099.126953	9354.666016	63.408215
612.591675	1140.035889	13907.983398	9118.011719	62.484402
612.929382	1067.219238	13787.380859	8844.949219	61.144897
613.267090	1083.147949	13373.235352	8496.794922	60.322163
613.604736	1135.484863	13311.796875	8371.640625	59.428139
613.942261	1099.076538	13307.246094	8123.609375	57.539604
614.279785	1178.719727	13109.275391	8303.375000	59.717716
614.617310	1133.209351	12690.579102	8144.088867	60.661545
614.954712	1149.138062	12440.272461	8012.108887	60.781940
615.292175	1183.270874	12485.782227	7925.639160	59.653717
615.629517	1178.719727	12317.394531	7916.537109	60.490295
615.966797	1124.107300	12260.505859	7948.394043	61.279118
616.304138	1142.311401	12244.577148	7825.516113	60.196762
616.641296	1142.311401	12346.975586	7820.964844	59.606010
616.978516	1171.893188	12112.597656	7882.404297	61.335278
617.315552	1039.912964	12267.333008	7850.546875	60.660721
617.652771	1092.250000	12399.312500	7868.750977	59.931580
617.989685	1080.872437	12340.149414	7939.291992	60.913494
618.326721	1155.964600	12331.046875	7889.230469	60.252495
618.663696	1101.352051	12613.211914	7871.026367	58.806091
619.000549	1128.658325	12415.241211	7754.975098	58.709682
619.337463	1119.556274	12544.946289	7852.822266	58.932487
619.674194	1128.658325	12397.037109	7595.688477	57.390957
620.010986	1121.831787	12101.219727	7836.893555	61.160618
620.347778	1094.525513	11846.361328	7841.444824	62.751324
620.684387	1092.250000	12060.259766	7959.771973	62.614113
621.020996	1199.199463	12071.637695	7923.363281	61.845963
621.357605	1158.240112	11948.759766	7600.239258	59.700546
621.694214	1064.943726	11928.280273	7625.270020	60.389603
622.030579	1144.586914	11896.422852	7634.372070	60.359787
622.367065	1133.209351	11844.085938	7566.106445	60.059479
622.703430	1155.964600	11857.739258	7286.217773	57.282585
623.039795	1110.454102	11646.115234	7320.350586	58.941689
623.376160	1087.698975	11618.809570	7427.299805	60.198788
623.712402	1085.423462	11737.136719	7415.922363	59.431747
624.048645	1121.831787	11664.319336	7356.758789	59.140945
624.384766	1080.872437	11575.574219	7506.943359	61.231567
624.720886	1171.893188	11730.309570	7370.412109	58.706902
625.057007	1117.280762	11432.216797	7329.452637	60.225018
625.392944	1137.760376	11673.421875	7422.749023	59.654430
625.729004	1076.321289	11611.982422	7313.523926	59.200867
626.064941	1101.352051	11980.617188	7604.790527	59.778286
626.400818	1069.494751	12299.189453	7650.300781	58.601830
626.736633	1140.035889	12301.465820	7618.443848	58.042816
627.072449	1128.658325	12635.966797	7793.658691	57.919716
627.408264	1085.423462	12510.813477	7916.537109	59.788891
627.743896	1069.494751	12706.507813	8109.956055	60.500591
628.079590	1083.147949	12642.793945	8046.241699	60.236217
628.415161	1080.872437	12736.089844	8018.935547	59.527527
628.750793	1105.903076	12544.946289	7864.199707	59.080963
629.086365	1115.005249	12246.852539	8032.588379	62.142273
629.421753	1087.698975	12412.965820	7625.270020	57.725540
629.757263	1094.525513	12037.504883	7550.178223	58.993557
630.092651	1101.352051	11951.035156	7502.392090	58.997482
630.427917	1096.801025	11750.789063	7265.737793	57.902603
630.763184	1124.107300	11388.981445	7299.870605	60.164043
631.098511	1215.128052	11350.297852	7208.850098	59.137856
631.433716	1128.658325	11125.021484	7060.940918	59.344410
631.768799	1074.045776	10861.060547	7051.838867	61.078819
632.103943	1117.280762	10904.295898	6979.022461	59.893044
632.438965	1176.444214	10972.561523	6860.695313	58.025551
632.773987	1176.444214	10922.500000	6865.246094	58.370296
633.109070	1206.026001	10735.907227	6735.541504	58.022926
633.443848	1092.250000	10849.683594	6683.204590	57.299438
633.778870	1135.484863	10669.916992	6842.491211	59.856808
634.113708	1149.138062	10619.855469	6676.377930	58.361359
634.448425	1167.342163	10599.375977	6938.062988	61.182144
634.783264	1128.658325	10908.846680	6940.338379	59.422989
635.117859	1146.862427	10724.529297	6717.337402	58.161087
635.452576	1108.178589	10904.295898	6776.500977	57.862949
635.787170	1083.147949	10902.020508	6771.949707	57.937420
636.121704	1069.494751	10405.957031	6726.439453	60.589813
636.456177	1135.484863	10299.006836	6610.387695	59.746712
636.790588	1140.035889	10005.464844	6553.500000	61.062630
637.125122	1089.974487	10314.935547	6546.673340	59.151455
637.459412	1169.617676	10089.659180	6391.937988	58.545921
637.793762	1140.035889	9893.964844	6291.814941	58.851055
638.128052	1089.974487	9818.872070	6319.121094	59.906151
638.462280	1133.209351	9843.903320	6278.162109	59.064781
638.796509	1149.138062	9727.851563	6209.896484	58.992039
639.130615	1112.729614	9554.912109	6125.702148	59.380054
639.464722	1130.933838	9573.116211	5986.895020	57.520206
639.798767	1124.107300	9550.360352	6046.058594	58.412098
640.132751	1174.168701	9322.808594	5845.812988	57.330360
640.466736	1110.454102	9381.972656	5966.415527	58.707012
640.800598	1124.107300	9554.912109	5998.272949	57.813763
641.134521	1176.444214	9115.736328	5813.955566	58.412151
641.468262	1085.423462	9193.104492	5838.986328	58.630363
641.802063	1074.045776	9081.603516	5738.863281	58.255184
642.135803	1149.138062	8908.664063	5754.791992	59.354836
642.469421	1112.729614	9115.736328	5832.159668	58.970715
642.803101	1155.964600	9017.888672	5636.464844	56.989868
643.136658	1162.791138	8863.153320	5604.607910	57.683220
643.470215	1140.035889	8920.041992	5515.862305	56.244511
643.803711	1128.658325	8872.255859	5581.852539	57.508080
644.137085	1128.658325	8958.725586	5497.658203	55.797733
644.470581	1140.035889	8635.601563	5700.179688	60.837887
644.803833	1135.484863	8706.142578	5511.311523	57.799820
645.137207	1121.831787	8915.490234	5527.240234	56.525551
645.470459	1151.413574	8612.846680	5581.852539	59.377857
645.803589	1169.617676	8667.458984	5565.923828	58.634293
646.136780	1174.168701	8731.172852	5579.577148	58.295700
646.469849	1151.413574	8831.295898	5406.637207	55.407406
646.802979	1126.382813	8712.968750	5506.760254	57.738453
647.135986	1126.382813	8619.672852	5424.841797	57.364109
647.468994	1155.964600	8940.521484	5495.382813	55.743931
647.801941	1126.382813	8858.602539	5506.760254	56.650970
648.134766	1108.178589	8967.827148	5509.035645	55.993050
648.467651	1158.240112	8817.643555	5540.893066	57.219246
648.800354	1153.689087	8947.347656	5472.627441	55.416058
649.133179	1180.995239	8778.958984	5338.371582	54.716980
649.465881	1128.658325	8813.091797	5388.433105	55.433819
649.798462	1089.974487	8920.041992	5465.800781	55.884911
650.131104	1119.556274	8833.571289	5536.342285	57.256645
650.463623	1103.627563	8765.305664	5504.484863	57.439861
650.796143	1133.209351	8833.571289	5374.780273	55.082748
651.128662	1089.974487	8765.305664	5575.025879	58.434631
651.461060	1108.178589	8738.000000	5531.791016	57.977928
651.793396	1112.729614	8904.113281	5509.035645	56.425228
652.125732	1105.903076	8744.826172	5581.852539	58.593983
652.458008	1085.423462	8788.061523	5509.035645	57.429832
652.790222	1201.474976	8983.755859	5447.596680	54.561401
653.122437	1119.556274	8633.326172	5397.535156	56.935188
653.454529	1117.280762	8608.294922	5254.177734	55.224792
653.786621	1103.627563	8562.785156	5506.760254	59.029892
654.118713	1117.280762	8626.499023	5404.361816	57.090912
654.450623	1144.586914	8512.723633	5179.085449	54.756023
654.782654	1146.862427	8437.630859	5249.626465	56.273411
655.114502	1115.005249	8508.171875	5379.331055	57.679287
655.446350	1146.862427	8410.325195	5195.014160	55.733086
655.778198	1112.729614	8526.375977	5333.820801	56.936775
656.109863	1130.933838	8285.170898	5165.432129	56.393127
656.441650	1060.392700	8405.773438	5115.370605	55.204464
656.773254	1124.107300	8155.466797	5272.381836	58.996761
657.104919	1133.209351	8212.354492	5245.075684	58.084221
657.436462	1105.903076	8144.088867	5167.707520	57.710960
657.767944	1078.596802	8487.692383	5147.228027	54.914009
658.099548	1078.596802	8626.499023	5276.932617	55.622551
658.430908	1135.484863	8428.529297	5333.820801	57.566303
658.762268	1064.943726	8740.275391	5349.749512	55.825676
659.093628	1137.760376	8701.591797	5513.586914	57.851986
659.424927	1096.801025	9143.042969	5513.586914	54.892532
659.756226	1126.382813	9682.340820	5734.312500	53.856384
660.087341	1112.729614	9721.024414	5936.833984	56.040188
660.418518	1176.444214	9889.413086	6157.559082	57.168972
660.749573	1105.903076	9791.566406	5950.486816	55.776791
661.080627	1165.066650	9641.381836	5948.211426	56.429523
661.411621	1060.392700	9509.401367	5923.180664	57.554539
661.742554	1051.290649	9529.880859	5729.761230	55.179821
662.073547	1160.515625	9179.451172	5575.025879	55.051075
662.404297	1101.352051	9006.511719	5556.821777	56.361542
662.735229	1142.311401	8728.897461	5418.015137	56.358730
663.065979	1067.219238	8612.846680	5315.616699	56.302773
663.396667	1160.515625	8505.896484	5215.493652	55.204464
663.727417	1128.658325	8346.610352	5133.574707	55.485497
664.057922	1151.413574	8134.986816	4960.635254	54.545452
664.388611	1155.964600	8107.680664	4969.737305	54.860882
664.719116	1183.270874	7941.567383	4890.094238	54.848484
665.049622	1146.862427	7805.036133	4815.001953	55.092278
665.380005	1094.525513	7734.495117	4915.125000	57.539413
665.710388	1133.209351	7741.321777	4737.634277	54.545452
666.040771	1153.689087	7780.005859	4794.522461	54.945057
666.371033	1119.556274	7836.893555	4867.338867	55.792683
666.701294	1140.035889	7663.954102	4703.501465	54.621555
667.031555	1115.005249	7707.188965	4648.889160	53.607182
667.361633	1180.995239	7695.811523	4689.848145	53.859585
667.691772	1101.352051	7613.892578	4851.410156	57.582108
668.021790	1160.515625	7704.913574	4803.624512	55.667595
668.351807	1108.178589	7627.545898	4710.328125	55.253052
668.681763	1105.903076	7577.484375	4735.358887	56.082985
669.011719	1083.147949	7725.393066	4719.430176	54.744778
669.341614	1089.974487	7629.821289	4783.144531	56.471813
669.671387	1142.311401	7622.994629	4733.083496	55.407307
670.001221	1060.392700	7766.352539	4714.878906	54.496094
670.330933	1133.209351	7780.005859	4783.144531	54.912697
670.660583	1055.841675	7907.434570	4833.206055	55.131184
670.990173	1119.556274	7711.740234	4728.532227	54.746288
671.319763	1105.903076	7588.861816	4571.521484	53.457355
671.649292	1162.791138	7597.963867	4662.541992	54.384724
671.978821	1146.862427	7295.319824	4646.613281	56.920795
672.308289	1124.107300	7415.922363	4676.195313	56.455696
672.637695	1149.138062	7370.412109	4507.806641	53.986828
672.966980	1185.546387	7261.187012	4453.194336	53.782772
673.296326	1206.026001	7224.778320	4637.511230	57.013233
673.625610	1140.035889	7329.452637	4535.112793	54.852936
673.954773	1155.964600	7347.656738	4507.806641	54.134506
674.283936	1115.005249	7106.451660	4526.010742	56.931252
674.613037	1069.494751	7286.217773	4500.979980	55.197655
674.942078	1162.791138	7186.094727	4466.847168	54.854549
675.271118	1158.240112	7154.237305	4277.979004	52.030357
675.600098	1130.933838	7085.971680	4450.918457	55.750854
675.928955	1096.801025	7161.063965	4339.417969	53.470917
676.257813	1108.178589	6963.093750	4325.765137	54.955307
676.586670	1049.015137	6974.471191	4605.654297	60.023045
676.915466	1126.382813	6965.369141	4419.061523	56.391273
677.244141	1126.382813	6985.848633	4305.285156	54.252426
677.572876	1151.413574	6833.389160	4293.907715	55.306366
677.901489	1121.831787	6676.377930	4325.765137	57.681282
678.230042	1051.290649	6988.124512	4464.571777	57.493290
678.558594	1140.035889	7017.706055	4384.928711	55.207130
678.887085	1210.577026	6967.644531	4275.703613	53.241108
679.215515	1092.250000	6953.991699	4375.826660	56.017082
679.543945	1155.964600	7076.869629	4455.469727	55.726364
679.872253	1142.311401	7288.493164	4439.541016	53.646797
680.200562	1112.729614	7347.656738	4521.459961	54.671535
680.528809	1128.658325	7538.800293	4639.787109	54.774590
680.856995	1137.760376	7511.494141	4630.685059	54.801861
681.185120	1092.250000	7597.963867	4735.358887	55.998604
681.513306	1115.005249	7657.127441	4564.694824	52.730434
681.841309	1069.494751	7757.250488	4673.919922	53.895885
682.169373	1085.423462	7845.995605	4596.552246	51.935379
682.497314	1112.729614	7725.393066	4739.909668	54.852028
682.825134	1124.107300	7434.126465	4560.143555	54.453655
683.153076	1126.382813	7620.719238	4760.389648	55.956554
683.480896	1099.076538	7406.820313	4646.613281	56.240978
683.808655	1051.290649	7409.095703	4541.939453	54.903362
684.136414	1140.035889	7306.697266	4466.847168	53.948338
684.464050	1046.739624	7254.360352	4391.755371	53.885632
684.791626	1112.729614	7097.349609	4398.581543	54.904938
685.119263	1105.903076	6837.939941	4177.855957	53.592690
685.446838	1121.831787	6853.868652	4309.836426	55.617306
685.774292	1196.923950	6553.500000	4193.784668	55.947319
686.101685	1124.107300	6599.010254	4159.651855	55.444717
686.429077	1155.964600	6614.938965	4175.580566	55.314709
686.756348	1124.107300	6539.846680	4054.978027	54.117645
687.083679	1094.525513	6492.061035	4150.549805	56.618885
687.410950	1078.596802	6635.418457	4164.203125	55.528259
687.738159	1190.097412	6655.898438	4114.141602	53.497086
688.065308	1085.423462	6589.908203	4100.488281	54.774696
688.392395	1044.463989	6783.327637	4282.530273	56.423477
688.719421	1042.188477	6676.377930	4120.968262	54.644592
689.046448	1190.097412	6837.939941	4271.152344	54.552776
689.373413	1133.209351	6767.398926	4168.753906	53.877216
689.700317	1149.138062	6639.969727	4177.855957	55.159546
690.027100	1137.760376	6662.725098	4100.488281	53.624378
690.353943	1133.209351	6626.316406	4070.906738	53.479702
690.680725	1183.270874	6403.315430	4091.386475	55.710556
691.007446	1055.841675	6378.284668	3936.650879	54.125694
691.334106	1096.801025	6353.253906	3909.344727	53.506493
691.660645	1162.791138	6146.181641	3868.385254	54.292236
691.987244	1117.280762	6077.916016	3831.977051	54.724770
692.313721	1124.107300	5984.619629	3847.905762	56.039326
692.640259	1144.586914	6109.773438	3829.701416	54.078823
692.966675	1103.627563	6023.303711	3895.691650	56.753002
693.293030	1092.250000	5838.986328	3702.272461	54.985622
693.619324	1130.933838	5989.170898	3759.160400	54.098358
693.945618	1103.627563	5829.884277	3731.854004	55.609051
694.271851	1101.352051	5709.281738	3734.129639	57.135803
694.598083	1171.893188	5757.067871	3795.568604	57.220833
694.924194	1115.005249	5920.905273	3602.149414	51.751892
695.250244	1115.005249	5679.699707	3668.139648	55.932205
695.576294	1121.831787	5752.516602	3690.894775	55.479118
695.902283	1174.168701	5713.832520	3595.322754	53.333332
696.228210	1049.015137	5864.017090	3624.904541	53.497162
696.554138	1144.586914	5784.374023	3725.027588	55.615498
696.879944	1130.933838	5727.485840	3606.700439	53.861389
697.205750	1169.617676	5707.006348	3750.058350	56.870613
697.531433	1183.270874	5889.047852	3736.405273	54.255322
697.857178	1126.382813	5882.221191	3722.751953	54.593300
698.182739	1137.760376	6068.813965	3877.487549	55.560680
698.508423	1126.382813	6360.080566	3909.344727	53.173912
698.833984	1171.893188	6328.223145	4120.968262	57.193298
699.159485	1115.005249	6726.439453	4323.489746	57.177620
699.484924	1149.138062	7045.012207	4255.224121	52.682365
699.810303	1158.240112	7060.940918	4475.949219	56.206627
700.135681	1174.168701	7302.146484	4432.714355	53.174896
700.460999	1135.484863	7447.779785	4685.297363	56.236481
700.786255	1151.413574	7065.492188	4444.092285	55.675262
701.111450	1137.760376	6869.797363	4414.510254	57.165539
701.436646	1101.352051	6735.541504	4211.988770	55.210014
701.761719	1108.178589	6539.846680	4209.713379	57.100964
702.086792	1121.831787	6385.111328	4048.151611	55.598793
702.411865	1094.525513	6084.742676	4054.978027	59.325127
702.736816	1085.423462	5848.088379	3916.171387	59.436218
703.061646	1083.147949	5788.924805	3806.946289	57.882011
703.386536	1112.729614	5743.414551	3697.721191	55.823093
703.711365	1099.076538	5458.974609	3590.771729	57.150314
704.036194	1133.209351	5420.290527	3581.669678	57.112530
704.360901	1094.525513	5324.718750	3438.312012	55.406136
704.685547	1044.463989	5377.055664	3367.770752	53.623943
705.010132	1167.342163	5235.973145	3381.423828	54.418343
705.334717	1119.556274	5179.085449	3558.914551	60.089687
705.659302	1103.627563	5135.850586	3360.944336	55.981945
705.983765	1078.596802	5110.819824	3356.393066	56.489841
706.308228	1171.893188	5076.687012	3342.739990	55.594398
706.632568	1076.321289	5110.819824	3244.892578	53.750702
706.956909	1201.474976	4906.022949	3315.433838	57.063885
707.281189	1119.556274	4946.982422	3279.025391	56.420925
707.605408	1144.586914	5222.320313	3365.495361	54.464287
707.929626	1140.035889	5049.380859	3340.464600	56.286377
708.253784	1140.035889	5038.002930	3310.882813	55.691772
708.577820	1192.372925	5028.900879	3340.464600	55.990517
708.901855	1080.872437	4987.941406	3420.107666	59.871876
709.225830	1162.791138	5035.727539	3358.668701	56.697998
709.549805	1124.107300	5142.677246	3265.372314	53.284260
709.873718	1128.658325	4967.461914	3329.086914	57.320690
710.197510	1128.658325	5090.339844	3385.974854	56.978745
710.521362	1171.893188	5181.360840	3472.444824	57.377983
710.845093	1062.668213	5229.146973	3269.923340	52.976517
711.168701	1142.311401	5217.769043	3376.872803	54.829708
711.492432	1212.852539	5254.177734	3481.546875	56.137386
711.816040	1126.382813	5468.076660	3563.465576	56.132072
712.139587	1105.903076	5468.076660	3517.955078	55.294724
712.463074	1117.280762	5452.147949	3595.322754	57.165348
712.786499	1137.760376	5454.423340	3565.741211	56.246708
713.109924	1137.760376	5311.065430	3547.536865	57.742634
713.433350	1158.240112	5367.953613	3438.312012	54.162163
713.756592	1087.698975	5388.433105	3570.292236	57.724869
714.079834	1062.668213	5290.585938	3524.781738	58.234657
714.403015	1055.841675	5249.626465	3390.525879	55.670097
714.726196	1094.525513	5292.861328	3488.373291	57.018963
715.049255	1083.147949	5190.462891	3415.556641	56.786701
715.372375	1105.903076	5081.237793	3420.107666	58.214081
715.695435	1133.209351	5108.544434	3390.525879	56.783051
716.018311	1092.250000	5076.687012	3381.423828	57.452881
716.341248	1099.076538	5022.074219	3454.240479	60.034809
716.664063	1119.556274	5092.615723	3451.965088	58.705605
716.987000	1146.862427	5158.605469	3388.250488	55.870682
717.309692	1149.138062	5060.758301	3451.965088	58.871441
717.632385	1117.280762	4915.125000	3465.618164	61.833431
717.955078	1108.178589	4944.706543	3385.974854	59.371300
718.277649	1174.168701	4926.502441	3374.597412	58.641605
718.600220	1049.015137	4855.961426	3206.208740	56.664673
718.922791	1115.005249	4787.695801	3272.198975	58.736065
719.245300	1165.066650	4767.216309	3156.147461	55.274796
719.567688	1092.250000	4576.072266	3099.259277	57.609406
719.890015	1087.698975	4630.685059	3074.228516	56.069359
720.212341	1140.035889	4569.245605	3106.085938	57.332455
720.534607	1178.719727	4487.327148	3117.463379	58.596970
720.856873	1117.280762	4439.541016	3015.064941	57.123283
721.179016	1167.342163	4421.336914	3019.616211	56.923084
721.501160	1076.321289	4318.938477	2996.860840	59.228069
721.823242	1135.484863	4273.428223	2876.258301	55.474979
722.145264	1146.862427	4246.121582	2914.942139	57.048462
722.467224	1162.791138	4205.162598	3024.167236	61.181747
722.789185	1149.138062	4241.570801	2894.462402	56.438557
723.111023	1140.035889	4186.958496	2917.217773	58.327110
723.432861	1137.760376	4134.621094	2899.013428	58.769932
723.754578	1151.413574	4243.846191	2792.063965	53.053715
724.076294	1119.556274	4280.254395	2871.707275	55.435566
724.397949	1078.596802	4241.570801	2899.013428	57.553951
724.719666	1174.168701	4095.937500	2710.145264	52.570091
725.041260	1119.556274	4120.968262	2876.258301	58.529186
725.362732	1055.841675	4086.835449	2835.298828	58.708706
725.684265	1130.933838	4227.917480	2789.788574	53.563560
726.005676	1149.138062	4091.386475	2773.859863	55.220413
726.327087	1092.250000	4089.110840	2821.645752	57.706909
726.648438	1069.494751	4102.764160	2919.493164	60.990242
726.969666	1117.280762	4091.386475	2978.656738	62.586075
727.290894	1119.556274	4091.386475	2933.146240	61.026031
727.612061	1194.648438	4111.866211	2958.177002	60.452415
727.933228	1137.760376	4145.999023	2926.319824	59.455368
728.254395	1119.556274	4287.081055	2910.391113	56.537357
728.575378	1124.107300	4280.254395	3037.820313	60.634472
728.896301	1192.372925	4380.377441	3026.442627	57.530338
729.217285	1180.995239	4391.755371	3078.779541	59.107006
729.538147	1146.862427	4355.346680	3012.789551	58.156029
729.858948	1155.964600	4430.438965	3124.290039	60.111187
730.179810	1151.413574	4407.683594	3030.993652	57.721874
730.500549	1153.689087	4225.642090	3033.269287	61.185184
730.821228	1117.280762	4305.285156	3001.411865	59.100643
731.141846	1176.444214	4371.275391	3012.789551	57.478638
731.462402	1137.760376	4425.888184	3056.024414	58.339092
731.782898	1096.801025	4532.837402	3133.392090	59.271523
732.103455	1158.240112	4430.438965	3133.392090	60.361614
732.423889	1105.903076	4412.234863	3028.718262	58.155544
732.744263	1096.801025	4473.673828	3201.657715	62.331535
733.064636	1140.035889	4334.867188	3058.300049	60.042736
733.384888	1128.658325	4403.132813	3133.392090	61.223068
733.705200	1117.280762	4337.142578	3169.800537	63.745586
734.025330	1096.801025	4478.225098	3058.300049	58.008076
734.345520	1167.342163	4396.306152	3099.259277	59.830868
734.665527	1089.974487	4428.163574	3037.820313	58.350376
734.985596	1085.423462	4296.183105	3172.075928	64.989365
735.305542	1133.209351	4205.162598	3081.055176	63.407406
735.625549	1103.627563	4271.152344	3037.820313	61.063221
735.945435	1105.903076	4293.907715	2967.279053	58.386864
736.265259	1190.097412	4123.243652	2933.146240	59.425911
736.585083	1135.484863	4066.355713	3019.616211	64.285721
736.904785	1112.729614	3982.161377	2903.564453	62.410786
737.224426	1112.729614	4061.804688	2787.512939	56.790119
737.544128	1135.484863	4025.396240	2771.584229	56.614170
737.863708	1153.689087	3907.069336	2985.483398	66.528923
738.183289	1121.831787	4023.120850	2853.503174	59.686275
738.502808	1094.525513	4016.294189	2810.268311	58.722748
738.822205	1074.045776	3959.406250	3003.687500	66.876976
739.141541	1142.311401	4029.947266	2937.697266	62.174942
739.460938	1112.729614	4027.671875	2942.248291	62.763458
739.780212	1142.311401	4066.355713	2987.758789	63.112835
740.099426	1128.658325	4277.979004	2974.105713	58.598267
740.418640	1026.259888	4020.845215	2908.115479	62.841942
740.737793	1078.596802	4086.835449	3005.962891	64.069588
741.056885	1130.933838	4123.243652	2937.697266	60.380226
741.375977	1105.903076	4100.488281	2949.074951	61.550156
741.694946	1060.392700	4039.049316	2976.381104	64.323906
742.013855	1140.035889	4080.008789	2933.146240	60.990711
742.332703	1146.862427	3922.997803	2853.503174	61.475418
742.651550	1119.556274	3909.344727	2917.217773	64.437195
742.970398	1162.791138	3913.895752	2801.166016	59.553349
743.289124	1117.280762	3831.977051	2728.349365	59.346184
743.607788	1108.178589	3825.150391	2878.533936	65.159142
743.926453	1119.556274	3802.395264	2805.717041	62.849873
744.245056	1128.658325	3777.364502	2796.614990	62.972507
744.563599	1144.586914	3884.313965	2801.166016	60.465115
744.882141	1108.178589	3715.925537	2851.227539	66.841179
745.200500	1108.178589	3820.599365	2669.185791	57.550331
745.518860	1137.760376	3690.894775	2701.043213	61.229950
745.837219	1110.454102	3747.782715	2730.625000	61.432274
746.155518	1094.525513	3608.976074	2769.308838	66.606331
746.473755	1137.760376	3483.822266	2701.043213	66.634338
746.791992	1110.454102	3643.108887	2680.563477	61.994606
747.110107	1076.321289	3645.384277	2648.706299	61.204613
747.428162	1069.494751	3570.292236	2819.370361	69.972710
747.746216	1183.270874	3517.955078	2764.757813	67.738800
748.064148	1183.270874	3520.230713	2657.808350	63.096394
748.382080	1142.311401	3606.700439	2666.910400	61.865189
748.700073	1178.719727	3581.669678	2691.941162	62.973488
749.017822	1110.454102	3442.863037	2767.033203	71.024384
749.335632	1174.168701	3581.669678	2664.634766	61.909260
749.653320	1137.760376	3595.322754	2687.390137	63.055557
749.971008	1112.729614	3549.812500	2801.166016	69.281036
750.288696	1080.872437	3718.200928	2796.614990	65.056076
750.606262	1042.188477	3620.353516	2696.492188	64.165932
750.923828	1101.352051	3643.108887	2680.563477	62.130703
751.241272	1119.556274	3636.282227	2828.472412	67.902351
751.558716	1094.525513	3529.332764	2678.288086	65.046738
751.876038	1028.535400	3636.282227	2778.410889	67.102966
752.193481	1089.974487	3561.189941	2746.553711	67.035004
752.510681	1108.178589	3399.628174	2639.604248	66.832176
752.827942	1064.943726	3442.863037	2744.278076	70.622002
753.145081	1108.178589	3527.057129	2732.900391	67.168396
753.462219	1074.045776	3497.475586	2721.522949	67.981224
753.779297	1146.862427	3513.404053	2792.063965	69.519234
754.096375	1185.546387	3504.302002	2744.278076	67.222771
754.413330	1158.240112	3542.985840	2707.869873	64.980927
754.730286	1144.586914	3568.016602	2853.503174	70.516434
755.047119	1108.178589	3490.648926	2735.176025	68.290359
755.363892	1165.066650	3508.853027	2746.553711	67.475731
755.680725	1105.903076	3524.781738	2673.737061	64.816559
755.997498	1160.515625	3433.760986	2646.430664	65.365364
756.314148	1167.342163	3479.271240	2632.777588	63.385826
756.630737	1140.035889	3490.648926	2742.002686	68.151024
756.947327	1119.556274	3395.077148	2773.859863	72.699989
757.263855	1117.280762	3385.974854	2723.798340	70.812439
757.580261	1119.556274	3422.383301	2559.960938	62.549404
757.896729	1089.974487	3370.046387	2685.114502	69.960075
758.213074	1133.209351	3515.679688	2682.839111	65.042984
758.529419	1105.903076	3467.893799	2637.328613	64.836220
758.845642	1092.250000	3431.485352	2780.686523	72.178993
759.161865	1108.178589	3481.546875	2737.451416	68.648125
759.478149	1153.689087	3447.414063	2705.594238	67.658722
759.794189	1149.138062	3504.302002	2771.584229	68.888878
760.110229	1142.311401	3488.373291	2892.187012	74.587784
760.426270	1074.045776	3508.853027	2751.104736	68.878517
760.742249	1117.280762	3520.230713	2819.370361	70.833336
761.058105	1108.178589	3554.363525	2830.747803	70.418594
761.374023	1171.893188	3624.904541	2839.849854	67.996292
761.689819	1058.117188	3668.139648	2789.788574	66.346992
762.005554	1165.066650	3565.741211	2705.594238	64.170616
762.321289	1135.484863	3595.322754	2778.410889	66.790009
762.636902	1142.311401	3661.312988	2885.360352	69.196030
762.952515	1117.280762	3472.444824	2887.635986	75.169083
763.268127	1165.066650	3718.200928	2837.574463	65.508026
763.583618	1080.872437	3645.384277	2930.870850	72.138428
763.899048	1124.107300	3941.202148	2987.758789	66.155090
764.214478	1155.964600	4280.254395	3192.555664	65.185730
764.529785	1112.729614	4585.174316	3558.914551	70.445610
764.845093	1108.178589	4869.614746	3820.599365	72.111313
765.160400	1135.484863	4997.043457	3866.109863	70.713028
765.475586	1037.637451	4935.604492	3884.313965	73.029778
765.790771	1094.525513	4794.522461	3891.140625	75.584259
766.105835	1103.627563	4673.919922	3652.210938	71.383049
766.420837	1105.903076	4457.745117	3440.587402	69.653770
766.735840	1160.515625	4259.774902	3233.515137	66.886932
767.050842	1115.005249	4036.773926	3244.892578	72.897194
767.365662	1087.698975	3836.528076	3233.515137	78.062920
767.680542	1112.729614	3911.620361	3010.513916	67.804878
767.995300	1087.698975	3870.660889	3062.851074	70.973022
768.309998	1124.107300	3768.262451	2980.932129	70.223747
768.624817	1137.760376	3656.761963	2926.319824	71.002716
768.939392	1058.117188	3627.180176	2833.023438	69.087692
769.254028	1110.454102	3674.966064	2917.217773	70.452538
769.568481	1130.933838	3465.618164	2833.023438	72.904488
769.882935	1076.321289	3488.373291	2876.258301	74.622643
770.197388	1176.444214	3385.974854	2751.104736	71.266739
770.511841	1176.444214	3417.832275	2760.206787	70.659897
770.826172	1165.066650	3294.954102	2689.665527	71.581192
771.140442	1087.698975	3276.750000	2694.216553	73.388771
771.454651	1117.280762	3372.321777	2739.727051	71.947533
771.768860	1115.005249	3244.892578	2680.563477	73.504280
772.082886	1130.933838	3247.168213	2694.216553	73.870964
772.397034	1115.005249	3192.555664	2646.430664	73.713036
772.711060	1151.413574	3128.841064	2653.257324	75.949371
773.025024	1160.515625	3183.453613	2691.941162	75.703041
773.338928	1151.413574	3192.555664	2710.145264	76.365662
773.652771	1178.719727	3167.524902	2596.369141	71.281464
773.966614	1137.760376	3094.708252	2669.185791	78.255814
774.280457	1117.280762	3137.943115	2578.165039	72.297295
774.594116	1128.658325	3078.779541	2600.920166	75.495911
774.907776	1087.698975	3019.616211	2639.604248	80.329803
775.221375	1074.045776	3094.708252	2566.787354	73.873871
775.534912	1149.138062	2999.136475	2641.879639	80.688805
775.848450	1074.045776	3090.157227	2612.297852	76.297966
776.161926	1119.556274	3067.402100	2550.858887	73.481308
776.475342	1146.862427	2971.830078	2528.103516	75.685783
776.788696	1135.484863	3126.565674	2523.552490	69.714279
777.101990	1169.617676	2930.870850	2575.889648	79.844963
777.415283	1105.903076	2924.044189	2443.909424	73.591995
777.728516	1144.586914	2899.013428	2491.695313	76.783401
778.041626	1151.413574	2937.697266	2610.022461	81.656059
778.354736	1133.209351	2935.421875	2493.970703	75.505043
778.667725	1151.413574	3005.962891	2516.726074	73.619637
778.980774	1155.964600	2935.421875	2439.358398	72.122765
779.293640	1126.382813	2880.809326	2523.552490	79.636833
779.606567	1069.494751	2755.655762	2425.705078	80.431839
779.919434	1160.515625	2844.401123	2550.858887	82.567566
780.232239	1171.893188	2878.533936	2421.154053	73.199989
780.544983	1162.791138	2921.768799	2368.817139	68.564034
780.857666	1201.474976	3008.238525	2448.460449	69.017632
781.170227	1169.617676	2792.063965	2505.348389	82.328194
781.482849	1140.035889	2855.778564	2548.583252	82.095490
781.795410	1117.280762	2819.370361	2550.858887	84.224602
782.107910	1126.382813	2889.911377	2632.777588	85.419357
782.420288	1135.484863	2805.717041	2468.940186	79.836525
782.732666	1108.178589	2776.135498	2489.419678	82.810356
783.044983	1196.923950	2712.420898	2427.980713	81.231224
783.357300	1153.689087	2716.971924	2507.624023	86.608444
783.669495	1144.586914	2767.033203	2414.327637	78.260880
783.981689	1160.515625	2785.237549	2361.990479	73.949570
784.293762	1140.035889	2735.176025	2393.847900	78.601997
784.605835	1126.382813	2732.900391	2423.429688	80.736549
784.917908	1121.831787	2632.777588	2380.194824	83.283134
785.229858	1151.413574	2671.461426	2373.368164	80.389221
785.541748	1092.250000	2696.492188	2400.674561	81.560287
785.853577	1242.434326	2591.818115	2343.786377	81.618889
786.165405	1105.903076	2628.226563	2316.480225	79.521675
786.477173	1137.760376	2707.869873	2227.734863	69.420288
786.788879	1049.015137	2641.879639	2341.510986	81.142860
787.100525	1103.627563	2630.501953	2273.245361	76.602097
787.412109	1035.361938	2621.399902	2346.062012	82.639893
787.723694	1064.943726	2600.920166	2321.031250	81.777786
788.035156	998.953613	2605.471436	2377.919189	85.835686
788.346558	1023.984375	2610.022461	2407.500977	87.230980
788.658081	1092.250000	2632.777588	2405.225586	85.228958
788.969360	1099.076538	2653.257324	2462.113525	87.701317
789.280640	1119.556274	2773.859863	2443.909424	80.055023
789.591919	1176.444214	2769.308838	2532.654541	85.142853
789.903076	1158.240112	2848.952148	2546.307861	82.099594
790.214172	1121.831787	2924.044189	2462.113525	74.368690
790.525269	1117.280762	2798.890625	2473.491211	80.649529
790.836365	1124.107300	2744.278076	2484.868652	83.988762
791.147339	1126.382813	2728.349365	2464.388916	83.522720
791.458191	1112.729614	2737.451416	2421.154053	80.532211
791.769104	1103.627563	2657.808350	2325.582275	78.623718
792.079895	1149.138062	2703.318604	2448.460449	83.601768
792.390686	1124.107300	2569.062988	2259.592041	78.582672
792.701416	1169.617676	2541.756836	2348.337402	85.903801
793.012085	1151.413574	2487.144287	2412.052002	94.378189
793.322693	1099.076538	2591.818115	2371.092773	85.213425
793.633240	1185.546387	2544.032227	2248.214600	78.224457
793.943787	1094.525513	2448.460449	2291.449463	88.403358
794.254272	1101.352051	2607.746826	2273.245361	77.794571
794.564636	1094.525513	2471.215576	2277.796387	85.950417
794.875000	1183.270874	2462.113525	2218.632813	80.960854
795.185303	1080.872437	2484.868652	2280.071777	85.413292
795.495544	1021.708862	2496.246338	2204.979736	80.246918
795.805786	1149.138062	2430.256104	2268.694336	87.389000
796.115906	1165.066650	2475.766602	2273.245361	84.548622
796.426025	1108.178589	2491.695313	2289.173828	85.361832
796.736023	1140.035889	2525.828125	2341.510986	86.699509
797.045959	1110.454102	2562.236328	2321.031250	83.385590
797.355896	1142.311401	2598.644775	2352.888428	83.124992
797.665833	1103.627563	2660.083740	2382.470215	82.163742
797.975708	1183.270874	2562.236328	2355.164063	84.983505
798.285461	1083.147949	2641.879639	2398.398926	84.379562
798.595154	1117.280762	2610.022461	2427.980713	87.804871
798.904846	1128.658325	2423.429688	2373.368164	96.133560
799.214478	1096.801025	2473.491211	2396.123291	94.380150
799.524109	1071.770264	2571.338623	2275.520752	80.273132
799.833557	1121.831787	2587.267090	2350.613037	83.850937
800.143005	1089.974487	2462.113525	2296.000488	87.893860
800.452393	1069.494751	2412.052002	2305.102539	92.033897
800.761780	1162.791138	2384.745850	2234.561523	87.709503
801.071106	1058.117188	2405.225586	2332.408936	94.594597
801.380371	1183.270874	2346.062012	2218.632813	89.041092
801.689575	1078.596802	2368.817139	2266.418701	92.063492
801.998718	1196.923950	2414.327637	2207.255127	82.990646
802.307800	1117.280762	2407.500977	2334.684326	94.356262
802.616882	1087.698975	2437.082764	2127.612061	77.065773
802.925903	1108.178589	2405.225586	2184.500000	82.982452
803.234863	1023.984375	2409.776611	2202.704102	85.057465
803.543701	1112.729614	2336.959961	2123.060791	82.527863
803.852539	1069.494751	2425.705078	2223.183838	85.067123
804.161316	1124.107300	2359.715088	2118.509766	80.478813
804.470032	1089.974487	2380.194824	2170.846924	83.774254
804.778809	1115.005249	2280.071777	2104.856689	84.960938
805.087341	1187.821899	2289.173828	2129.887451	85.537193
805.395935	1096.801025	2257.316650	2195.877686	94.705894
805.704468	1110.454102	2311.929199	2257.316650	95.454544
806.012939	1092.250000	2348.337402	2195.877686	87.862335
806.321350	1105.903076	2311.929199	2243.663574	94.339622
806.629761	1185.546387	2418.878662	2234.561523	85.055351
806.938049	1089.974487	2325.582275	2191.326416	89.134430
807.246277	1160.515625	2368.817139	2211.806152	87.005646
807.554504	1039.912964	2302.827148	2211.806152	92.792778
807.862671	1171.893188	2296.000488	2136.714111	85.829964
808.170715	1194.648438	2357.439453	2189.051025	85.518600
808.478821	1176.444214	2418.878662	2227.734863	84.615379
808.786804	1210.577026	2236.836914	2098.030273	86.474510
809.094727	1128.658325	2286.898438	2109.407715	84.675827
809.402649	1146.862427	2298.276123	2143.540527	86.561249
809.710510	1133.209351	2239.112549	2063.897461	84.156380
810.018311	1253.812012	2230.010498	2168.571289	93.706276
810.326050	1153.689087	2211.806152	2227.734863	101.505386
810.633667	1137.760376	2293.724854	2047.968750	78.740166
810.941345	1087.698975	2193.602051	2141.265137	95.267494
811.248901	1149.138062	2257.316650	2107.132324	86.447639
811.556396	1153.689087	2179.948975	2034.315552	85.809303
811.863892	1103.627563	2216.357178	2143.540527	93.456032
812.171326	1039.912964	2273.245361	2095.754639	85.608849
812.478699	1051.290649	2161.744873	2063.897461	91.188522
812.786011	1089.974487	2152.642578	2123.060791	97.216270
813.093262	1140.035889	2125.336426	2111.683350	98.614326
813.400391	1142.311401	2011.560425	1947.845825	92.670158
813.707642	1064.943726	2164.020264	2022.937988	87.163559
814.014709	1103.627563	2150.367188	2095.754639	94.782608
814.321716	1146.862427	2136.714111	2168.571289	103.218376
814.628723	1137.760376	2239.112549	2057.070801	83.471069
814.935669	1046.739624	2141.265137	2116.234375	97.713097
815.242554	1210.577026	2118.509766	2047.968750	92.230591
815.549438	1108.178589	2225.459229	1988.805176	78.818748
815.856201	1092.250000	2104.856689	2016.111450	91.235962
816.162964	1121.831787	2091.203613	2047.968750	95.539909
816.469604	1128.658325	2207.255127	1995.631714	80.379745
816.776184	1208.301514	2109.407715	1952.396851	82.575768
817.082825	1155.964600	2159.469238	1995.631714	83.673470
817.389343	1130.933838	2182.224365	2052.519775	87.662346
817.695801	1060.392700	2159.469238	2132.163086	97.515533
818.002197	1044.463989	2173.122314	2159.469238	98.790329
818.308533	1169.617676	2186.775391	2075.274902	89.038033
818.614868	1119.556274	2214.081787	2091.203613	88.773384
818.921143	1128.658325	2216.357178	2118.509766	91.004181
819.227356	1135.484863	2195.877686	2020.662476	83.476387
819.533447	1115.005249	2207.255127	2173.122314	96.875000
819.839539	1087.698975	2245.938965	2216.357178	97.445969
820.145569	1126.382813	2291.449463	2193.602051	91.601563
820.451538	1137.760376	2341.510986	2280.071777	94.896019
820.757568	1144.586914	2421.154053	2236.836914	85.561501
821.063416	1140.035889	2566.787354	2425.705078	90.111641
821.369263	1115.005249	2678.288086	2509.899414	89.228523
821.675049	1165.066650	2819.370361	2666.910400	90.784042
821.980713	1169.617676	2842.125488	2746.553711	94.285721
822.286438	1055.841675	3067.402100	2887.635986	91.063347
822.592102	1094.525513	3269.923340	3137.943115	93.933044
822.897583	1058.117188	4002.641113	3795.568604	92.967537
823.203125	1037.637451	6116.600098	5638.740723	90.591400
823.508545	1115.005249	8312.477539	7900.608398	94.277588
823.813965	1099.076538	10292.180664	9518.503906	91.584160
824.119263	1119.556274	10968.010742	10030.496094	90.480591
824.424622	1101.352051	9909.893555	9118.011719	91.010071
824.729858	1119.556274	8426.253906	7934.741211	93.273125
825.035095	1153.689087	7331.728027	6847.041992	92.154694
825.340149	1140.035889	6259.957520	5818.506836	91.377777
825.645264	1099.076538	5433.943848	5053.931641	91.233589
825.950256	1126.382813	5003.870117	4660.266602	91.138504
826.255310	1135.484863	4612.480469	4346.244629	92.342934
826.560242	1080.872437	4148.274414	4111.866211	98.813057
826.865112	1101.352051	3929.824463	3686.343750	91.391792
827.169922	1112.729614	3806.946289	3606.700439	92.567558
827.474670	1162.791138	3690.894775	3436.036377	89.918991
827.779419	1087.698975	3866.109863	3647.659912	92.137596
828.084045	1176.444214	4257.499512	4045.875977	93.131462
828.388672	1130.933838	4771.767090	4541.939453	93.687500
828.693176	1165.066650	5215.493652	4755.838379	88.651680
828.997681	1178.719727	5192.738281	4969.737305	94.444443
829.302124	1146.862427	4774.042480	4705.776855	98.117943
829.606567	1126.382813	4041.324951	3943.477539	96.643250
829.910828	1142.311401	3647.659912	3431.485352	91.371468
830.215149	1124.107300	3463.342773	3231.239502	90.077827
830.519348	1217.403687	3160.698486	3019.616211	92.740051
830.823547	1094.525513	2885.360352	2764.757813	93.265572
831.127686	1087.698975	2844.401123	2764.757813	95.466316
831.431763	1108.178589	2687.390137	2610.022461	95.100868
831.735779	1108.178589	2544.032227	2457.562500	93.977814
832.039734	1115.005249	2509.899414	2366.541748	89.722687
832.343628	1117.280762	2400.674561	2321.031250	93.794319
832.647461	1153.689087	2282.347412	2239.112549	96.169357
832.951233	1196.923950	2350.613037	2350.613037	100.000000
833.255127	1117.280762	2255.041016	2207.255127	95.800003
833.558777	1149.138062	2311.929199	2227.734863	92.759293
833.862366	1203.750488	2291.449463	2346.062012	105.020927
834.165955	1162.791138	2423.429688	2375.643799	96.209389
834.469482	1178.719727	2785.237549	2580.440674	87.252129
834.773010	1160.515625	3112.912354	3015.064941	94.988342
835.076416	1110.454102	3465.618164	3338.188965	94.589371
835.379822	1126.382813	3697.721191	3558.914551	94.601776
835.683105	1180.995239	3620.353516	3527.057129	96.175369
835.986389	1037.637451	3502.026611	3335.913574	93.259460
836.289612	1067.219238	3228.964111	3015.064941	90.105255
836.592773	1105.903076	3042.371338	2885.360352	91.891891
836.895874	1108.178589	2801.166016	2762.482178	97.715057
837.198914	1149.138062	2612.297852	2628.226563	101.088654
837.501892	1085.423462	2528.103516	2421.154053	92.586754
837.804871	1135.484863	2332.408936	2318.755615	98.859299
838.107666	1117.280762	2227.734863	2314.204590	107.786880
838.410583	1067.219238	2259.592041	2209.530762	95.801544
838.713379	1133.209351	2154.918213	2043.417725	89.086861
839.016052	1078.596802	2038.866699	1963.774414	92.180084
839.318787	1126.382813	2032.040039	2029.764526	99.748741
839.621338	1149.138062	1950.121338	1884.131226	91.761360
839.923889	1087.698975	1913.713013	1804.488037	86.776863
840.226440	1085.423462	1938.743774	1822.692139	86.399994
840.528931	1117.280762	1988.805176	1838.620850	82.767632
840.831299	1160.515625	2002.458252	1952.396851	94.054062
841.133606	1180.995239	2082.101563	2082.101563	100.000000
841.435913	1067.219238	2209.530762	2179.948975	97.410355
841.738220	1133.209351	2216.357178	2132.163086	92.226906
842.040405	1067.219238	2259.592041	2125.336426	88.740463
842.342529	1142.311401	2041.142212	2052.519775	101.265816
842.644592	1128.658325	2036.591064	1993.356201	95.238098
842.946594	1133.209351	1909.161987	1861.375977	93.841637
843.248596	1080.872437	1895.508789	1920.539551	103.072632
843.550598	1174.168701	1884.131226	1811.314575	89.743591
843.852478	1153.689087	1829.518677	1838.620850	101.346817
844.154236	1108.178589	1890.957764	1786.283813	86.627907
844.455994	1153.689087	1829.518677	1738.497925	86.531998
844.757690	1165.066650	1754.426514	1736.222412	96.911209
845.059326	1105.903076	1770.355225	1640.650513	80.479454
845.360962	1133.209351	1781.732788	1656.579102	80.701752
845.662476	1190.097412	1608.793213	1679.334351	116.847824
845.963989	1110.454102	1747.599976	1731.671387	97.500008
846.265381	1140.035889	1677.058838	1592.864502	84.322021
846.566772	1137.760376	1642.926025	1652.028076	101.801796
846.868042	1117.280762	1665.681274	1620.170776	91.701233
847.169373	1096.801025	1615.619751	1642.926025	105.263161
847.470581	1126.382813	1581.486938	1576.935913	99.000000
847.771729	1117.280762	1706.640625	1686.160889	96.525085
848.072815	1060.392700	1690.711914	1488.190552	67.870033
848.373901	1117.280762	1640.650513	1604.242188	93.043480
848.674866	1151.413574	1624.721802	1647.477051	104.807701
848.975891	1071.770264	1588.313477	1636.099487	109.251114
849.276794	1062.668213	1586.037964	1524.598877	88.260864
849.577637	1101.352051	1670.232300	1567.833862	82.000000
849.878357	1089.974487	1633.823975	1535.976563	82.008362
850.179077	1014.882263	1586.037964	1572.384888	97.609573
850.479736	1167.342163	1547.354126	1565.558350	104.790436
850.780396	1112.729614	1581.486938	1549.629639	93.203880
851.080994	1135.484863	1601.966675	1479.088501	73.658531
851.381470	1101.352051	1626.997314	1540.527588	83.549797
851.681946	1074.045776	1615.619751	1533.701050	84.873962
851.982361	1096.801025	1636.099487	1479.088501	70.886070
852.282715	1135.484863	1579.211426	1513.221313	85.128204
852.583008	1146.862427	1565.558350	1604.242188	109.239128
852.883240	1112.729614	1622.446289	1554.180664	86.607140
853.183411	1108.178589	1579.211426	1545.078613	92.753624
853.483521	1133.209351	1556.456177	1581.486938	105.913986
853.783630	1101.352051	1642.926025	1636.099487	98.739502
854.083679	1135.484863	1656.579102	1620.170776	93.013100
854.383667	1101.352051	1490.466064	1454.057739	90.643272
854.683533	1178.719727	1531.425537	1535.976563	101.290321
854.983337	1133.209351	1547.354126	1531.425537	96.153862
855.283203	1135.484863	1524.598877	1542.803101	104.678375
855.582886	1080.872437	1570.109375	1510.945801	87.906967
855.882629	1130.933838	1586.037964	1513.221313	84.000000
856.182312	1121.831787	1454.057739	1567.833862	134.246613
856.481873	1121.831787	1531.425537	1520.047852	97.222206
856.781372	1089.974487	1615.619751	1576.935913	92.640694
857.080872	1153.689087	1556.456177	1513.221313	89.265541
857.380310	1162.791138	1497.292725	1561.007324	119.047623
857.679688	1074.045776	1535.976563	1531.425537	99.014786
857.979004	1137.760376	1579.211426	1458.608887	72.680428
858.278259	1096.801025	1531.425537	1665.681274	130.890045
858.577454	1171.893188	1524.598877	1595.140137	120.000038
858.876648	1128.658325	1490.466064	1572.384888	122.641533
859.175720	1103.627563	1504.119263	1554.180664	112.499985
859.474792	1019.433350	1547.354126	1581.486938	106.465515
859.773743	1058.117188	1638.375000	1583.762451	90.588226
860.072693	1158.240112	1592.864502	1526.874512	84.816780
860.371521	1251.536499	1535.976563	1576.935913	114.399994
860.670349	1187.821899	1529.150024	1563.282837	110.000000
860.969116	1137.760376	1485.915039	1501.843750	104.575180
861.267883	1183.270874	1520.047852	1529.150024	102.702728
861.566589	1071.770264	1497.292725	1574.660400	118.181808
861.865112	1076.321289	1522.323364	1540.527588	104.081642
862.163635	1126.382813	1545.078613	1492.741699	87.500015
862.462158	1137.760376	1504.119263	1467.710938	90.062119
862.760620	1135.484863	1542.803101	1508.670288	91.620110
863.059021	1053.566162	1558.731689	1467.710938	81.981995
863.357361	1153.689087	1533.701050	1495.017212	89.820366
863.655640	1180.995239	1474.537476	1463.159912	96.124046
863.953857	1108.178589	1561.007324	1492.741699	84.924629
864.251953	1196.923950	1558.731689	1467.710938	74.842781
864.550110	1144.586914	1551.905151	1476.812988	81.564255
864.848206	1058.117188	1608.793213	1567.833862	92.561989
865.146179	1146.862427	1538.252075	1465.435425	81.395355
865.444092	1064.943726	1551.905151	1490.466064	87.383171
865.741943	1092.250000	1472.261963	1474.537476	100.598801
866.039795	1112.729614	1460.884399	1522.323364	117.647026
866.337646	1153.689087	1522.323364	1535.976563	103.703728
866.635376	1035.361938	1438.129150	1510.945801	118.079094
866.933044	1199.199463	1508.670288	1483.639526	91.911751
867.230652	1035.361938	1533.701050	1565.558350	106.392693
867.528198	1151.413574	1488.190552	1447.231201	87.837845
867.825745	1165.066650	1547.354126	1508.670288	89.880959
868.123230	1076.321289	1551.905151	1572.384888	104.306229
868.420593	1183.270874	1551.905151	1506.394775	87.654327
868.717896	1212.852539	1504.119263	1533.701050	110.156250
869.015198	1142.311401	1454.057739	1490.466064	111.678833
869.312439	1135.484863	1483.639526	1490.466064	101.960777
869.609619	1119.556274	1454.057739	1349.383789	68.707474
869.906738	1087.698975	1474.537476	1533.701050	115.294128
870.203796	1069.494751	1545.078613	1515.496826	93.779900
870.500854	1142.311401	1574.660400	1492.741699	81.052643
870.797791	1112.729614	1524.598877	1472.261963	87.292831
871.094666	1103.627563	1604.242188	1454.057739	69.999985
871.391602	1069.494751	1563.282837	1529.150024	93.087555
871.688293	1110.454102	1542.803101	1542.803101	100.000000
871.985107	1062.668213	1554.180664	1513.221313	91.666672
872.281738	1053.566162	1520.047852	1526.874512	101.463432
872.578369	1121.831787	1549.629639	1533.701050	96.276611
872.874939	1119.556274	1556.456177	1558.731689	100.520828
873.171509	1094.525513	1467.710938	1624.721802	142.073151
873.467957	1049.015137	1426.751587	1524.598877	125.903587
873.764343	1171.893188	1490.466064	1617.895264	140.000015
874.060669	1069.494751	1488.190552	1481.364014	98.369568
874.356995	1085.423462	1595.140137	1472.261963	75.892845
874.653198	1078.596802	1510.945801	1488.190552	94.736832
874.949463	1124.107300	1472.261963	1563.282837	126.143806
875.245544	1133.209351	1579.211426	1476.812988	77.040817
875.541626	1174.168701	1529.150024	1510.945801	94.871780
875.837646	1158.240112	1574.660400	1549.629639	93.989059
876.133606	1178.719727	1522.323364	1515.496826	98.013252
876.429565	1142.311401	1490.466064	1438.129150	84.967339
876.725403	1176.444214	1554.180664	1551.905151	99.397591
877.021179	1105.903076	1558.731689	1540.527588	95.979912
877.316956	1128.658325	1465.435425	1483.639526	105.405388
877.612610	1119.556274	1574.660400	1567.833862	98.500008
877.908203	1115.005249	1499.568237	1533.701050	108.875740
878.203857	1074.045776	1524.598877	1520.047852	98.989906
878.499390	1078.596802	1517.772339	1535.976563	104.145088
878.794800	1121.831787	1481.364014	1469.986450	96.835457
879.090271	1094.525513	1495.017212	1499.568237	101.136360
879.385559	1149.138062	1567.833862	1574.660400	101.630432
879.680847	1130.933838	1611.068726	1558.731689	89.099518
879.976196	1124.107300	1570.109375	1583.762451	103.061211
880.271301	1140.035889	1642.926025	1663.405762	104.072411
880.566467	1208.301514	1615.619751	1704.365112	121.787720
880.861572	1126.382813	1702.089600	1686.160889	97.233192
881.156555	1119.556274	1822.692139	1731.671387	87.055023
881.451477	1069.494751	1906.886475	2045.693237	116.576088
881.746460	1112.729614	2282.347412	2296.000488	101.167313
882.041321	1039.912964	2848.952148	2878.533936	101.635223
882.336121	1110.454102	3599.874023	3599.874023	100.000000
882.630798	1053.566162	4205.162598	4387.204102	105.776169
882.925537	1078.596802	4642.062500	4723.980957	102.298843
883.220215	1130.933838	4867.338867	4794.522461	98.051163
883.514771	1055.841675	4448.643066	4555.592773	103.152252
883.809326	1112.729614	4105.039551	4159.651855	101.825089
884.103760	1169.617676	3834.252441	3975.334961	105.294632
884.398132	1165.066650	3590.771729	3652.210938	102.532837
884.692505	1176.444214	3363.219727	3495.199951	106.035393
884.986816	1110.454102	3101.534912	3226.688477	106.285713
885.281067	1153.689087	2978.656738	3001.411865	101.246880
885.575256	1160.515625	2755.655762	2769.308838	100.855919
885.869385	1196.923950	2480.317627	2591.818115	108.687943
886.163452	1092.250000	2346.062012	2332.408936	98.911072
886.457458	1162.791138	2150.367188	2152.642578	100.230400
886.751465	1194.648438	2098.030273	2120.785400	102.518883
887.045410	1112.729614	2066.172852	1941.019287	86.873520
887.339233	1162.791138	1915.988525	1881.855713	95.468277
887.632996	1112.729614	1793.110352	1845.447388	107.692314
887.926758	1153.689087	1838.620850	1720.293701	82.724243
888.220398	1187.821899	1774.906250	1758.977539	97.286812
888.514099	1121.831787	1686.160889	1649.752563	93.548386
888.807678	1037.637451	1611.068726	1649.752563	106.746025
889.101196	1135.484863	1649.752563	1661.130127	102.212379
889.394653	1158.240112	1597.415649	1620.170776	105.181328
889.688049	1067.219238	1476.812988	1535.976563	114.444450
889.981384	1105.903076	1611.068726	1561.007324	90.090103
890.274719	1099.076538	1538.252075	1510.945801	93.782379
890.567932	1140.035889	1604.242188	1567.833862	92.156868
>>>>>End Processed Spectral Data<<<<<
