Jaz Data File
++++++++++++++++++++++++++++++++++++
Date: Sun Sep 29 07:28:57 2024
User: jaz
Dark Spectrum Present: Yes
Reference Spectrum Present: Yes
Processed Spectrum Present: Yes
Spectrometers: JAZA3692
Integration Time (usec): 40000 (JAZA3692)
Spectra Averaged: 1 (JAZA3692)
Boxcar Smoothing: 0 (JAZA3692)
Correct for Electrical Dark: No (JAZA3692)
Strobe/Lamp Enabled: Yes (JAZA3692)
Correct for Detector Non-linearity: No (JAZA3692)
Correct for Stray Light: No (JAZA3692)
Number of Pixels in Processed Spectrum: 2048
>>>>>Begin Processed Spectral Data<<<<<
W	D	R	S	P
190.244385	0.000000	0.000000	0.000000	0.000000
190.627136	0.000000	0.000000	0.000000	0.000000
191.009842	1105.903076	1067.219238	1062.668213	111.764671
191.392532	1112.729614	1064.943726	1110.454102	4.761893
191.775177	1137.760376	1119.556274	1174.168701	-200.000671
192.157791	1144.586914	1085.423462	1146.862427	-3.846146
192.540390	1196.923950	1151.413574	1176.444214	45.000149
192.922943	1178.719727	1074.045776	1026.259888	145.652130
193.305481	1183.270874	1162.791138	1092.250000	444.443573
193.687958	1105.903076	1190.097412	1105.903076	0.000000
194.070419	1112.729614	1087.698975	1103.627563	36.363636
194.452866	1221.954712	1178.719727	1083.147949	321.051941
194.835251	1187.821899	1249.260864	1089.974487	-159.259537
195.217621	1199.199463	1210.577026	1112.729614	-760.003235
195.599960	1142.311401	1135.484863	1165.066650	-333.335114
195.982254	1078.596802	1137.760376	1153.689087	126.923172
196.364517	1124.107300	1146.862427	1089.974487	-150.000534
196.746750	1167.342163	1128.658325	1130.933838	94.117668
197.128952	1178.719727	1169.617676	1194.648438	-175.001343
197.511139	1167.342163	1233.332275	1137.760376	-44.827606
197.893280	1165.066650	1092.250000	1133.209351	43.750019
198.275391	1087.698975	1187.821899	1140.035889	52.272659
198.657471	1119.556274	1206.026001	1171.893188	60.526287
199.039520	1130.933838	1256.087524	1128.658325	-1.818175
199.421539	1171.893188	1215.128052	1151.413574	-47.368286
199.803513	1185.546387	1110.454102	1137.760376	63.636379
200.185471	1099.076538	1144.586914	1094.525513	-9.999973
200.567383	1208.301514	1162.791138	1155.964600	114.999962
200.949265	1167.342163	1221.954712	1167.342163	0.000000
201.331131	1124.107300	1137.760376	1094.525513	-216.667557
201.712967	1140.035889	1101.352051	1130.933838	23.529337
202.094742	1133.209351	1180.995239	1080.872437	-109.523788
202.476517	1083.147949	1199.199463	1194.648438	96.078445
202.858231	1128.658325	1153.689087	1151.413574	90.909134
203.239944	1103.627563	1155.964600	1067.219238	-69.565125
203.621582	1121.831787	1130.933838	1069.494751	-575.002686
204.003235	1137.760376	1112.729614	1151.413574	-54.545677
204.384827	1144.586914	1185.546387	1126.382813	-44.444180
204.766388	1108.178589	1215.128052	1128.658325	19.148985
205.147934	1078.596802	1153.689087	1092.250000	18.181892
205.529449	1146.862427	1133.209351	1158.240112	-83.334229
205.910904	1119.556274	1206.026001	1128.658325	10.526286
206.292343	1115.005249	1092.250000	1174.168701	-259.999146
206.673767	1140.035889	1158.240112	1185.546387	249.999664
207.055115	1233.332275	1094.525513	1146.862427	62.295128
207.436462	1076.321289	1174.168701	1115.005249	39.534985
207.817780	1151.413574	1096.801025	1135.484863	29.166759
208.199051	1126.382813	1187.821899	1165.066650	62.962910
208.580307	1044.463989	1108.178589	1112.729614	107.142830
208.961517	1092.250000	1126.382813	1092.250000	0.000000
209.342712	1069.494751	1121.831787	1046.739624	-43.478058
209.723846	1092.250000	1149.138062	1058.117188	-59.999958
210.104965	1187.821899	1140.035889	1069.494751	247.618805
210.486069	1128.658325	1190.097412	1092.250000	-59.259224
210.867111	1078.596802	1128.658325	1165.066650	172.727158
211.248123	1176.444214	1130.933838	1167.342163	19.999947
211.629120	1130.933838	1169.617676	1103.627563	-70.588326
212.010071	1089.974487	1142.311401	1199.199463	208.695862
212.390991	1126.382813	1128.658325	1101.352051	-1100.005371
212.771881	1187.821899	1128.658325	1137.760376	84.615448
213.152756	1160.515625	1171.893188	1101.352051	-520.002136
213.533569	1115.005249	1146.862427	1071.770264	-135.715057
213.914368	1124.107300	1196.923950	1135.484863	15.624948
214.295135	1199.199463	1201.474976	1046.739624	-6700.021484
214.675858	1140.035889	1112.729614	1053.566162	316.666138
215.056549	1130.933838	1101.352051	1121.831787	30.769104
215.437225	1153.689087	1130.933838	1094.525513	259.999664
215.817841	1155.964600	1196.923950	1112.729614	-105.555840
216.198441	1115.005249	1176.444214	1087.698975	-44.444553
216.579025	1140.035889	1160.515625	1103.627563	-177.777313
216.959549	1128.658325	1233.332275	1062.668213	-63.043491
217.340057	1067.219238	1144.586914	1064.943726	-2.941167
217.720535	1165.066650	1160.515625	1089.974487	1650.005371
218.100967	1153.689087	1160.515625	1128.658325	-366.668457
218.481369	1151.413574	1128.658325	1096.801025	239.999786
218.861740	1119.556274	1117.280762	1153.689087	-1500.005371
219.242065	1119.556274	1146.862427	1108.178589	-41.667114
219.622391	1153.689087	1115.005249	1135.484863	47.058990
220.002670	1083.147949	1142.311401	1187.821899	176.923325
220.382919	1146.862427	1130.933838	1067.219238	500.001526
220.763123	1128.658325	1162.791138	1076.321289	-153.333496
221.143295	1128.658325	1190.097412	1142.311401	22.222134
221.523453	1169.617676	1180.995239	1187.821899	160.001068
221.903549	1121.831787	1194.648438	1039.912964	-112.500122
222.283630	1142.311401	1212.852539	1092.250000	-70.967667
222.663696	1160.515625	1126.382813	1096.801025	186.666718
223.043701	1115.005249	1196.923950	1110.454102	-5.555688
223.423676	1058.117188	1142.311401	1101.352051	51.351349
223.803635	1140.035889	1149.138062	1119.556274	-224.996979
224.183548	1080.872437	1192.372925	1115.005249	30.612253
224.563431	1033.086426	1192.372925	1096.801025	40.000000
224.943283	1115.005249	1174.168701	1149.138062	57.692394
225.323105	1110.454102	1144.586914	1105.903076	-13.333285
225.702881	1133.209351	1199.199463	1110.454102	-34.482815
226.082642	1085.423462	1149.138062	1183.270874	153.571411
226.462357	1146.862427	1244.709839	1019.433350	-130.232452
226.842041	1087.698975	1165.066650	1087.698975	0.000000
227.221695	1124.107300	1178.719727	1089.974487	-62.500084
227.601318	1137.760376	1171.893188	1076.321289	-180.000076
227.980911	1135.484863	1171.893188	1142.311401	18.749937
228.360474	1058.117188	1206.026001	1144.586914	58.461510
228.739990	1171.893188	1290.220337	1119.556274	-44.230690
229.119476	1105.903076	1231.056763	1119.556274	10.909146
229.498932	1074.045776	1237.883301	1187.821899	69.444481
229.878372	1124.107300	1324.353149	1215.128052	45.454502
230.257736	1167.342163	1454.057739	1178.719727	3.968240
230.637115	1126.382813	1383.516602	1133.209351	2.654858
231.016449	1067.219238	1367.588013	1176.444214	36.363625
231.395737	1155.964600	1381.241089	1185.546387	13.131325
231.774994	1144.586914	1306.148926	1146.862427	1.408445
232.154221	1128.658325	1253.812012	1135.484863	5.454524
232.533417	1087.698975	1292.495850	1146.862427	28.888845
232.912582	1071.770264	1292.495850	1126.382813	24.742283
233.291702	1117.280762	1278.842651	1133.209351	9.859125
233.670792	1149.138062	1272.016113	1194.648438	37.037025
234.049866	1151.413574	1328.904175	1121.831787	-16.666677
234.428894	1117.280762	1310.699951	1178.719727	31.764669
234.807892	1155.964600	1315.250977	1185.546387	18.571447
235.186874	1178.719727	1256.087524	1221.954712	55.882404
235.565781	1128.658325	1269.740601	1153.689087	17.741961
235.944687	1087.698975	1328.904175	1210.577026	50.943367
236.323547	1133.209351	1317.526489	1119.556274	-7.407383
236.702377	1110.454102	1272.016113	1219.679199	67.605682
237.081177	1115.005249	1278.842651	1153.689087	23.611115
237.459946	1130.933838	1297.046875	1115.005249	-9.589005
237.838669	1167.342163	1340.281738	1103.627563	-36.842117
238.217361	1130.933838	1353.934937	1140.035889	4.081617
238.596039	1110.454102	1381.241089	1155.964600	16.806753
238.974670	1087.698975	1326.628662	1119.556274	13.333337
239.353271	1030.810913	1406.271851	1137.760376	28.484844
239.731842	1115.005249	1381.241089	1153.689087	14.529914
240.110367	1146.862427	1401.720825	1144.586914	-0.892854
240.488876	1140.035889	1322.077637	1174.168701	18.749992
240.867340	1089.974487	1399.445313	1169.617676	25.735281
241.245789	1151.413574	1392.618774	1133.209351	-7.547194
241.624176	1124.107300	1460.884399	1208.301514	24.999981
242.002548	1130.933838	1526.874512	1162.791138	8.045979
242.380890	1169.617676	1479.088501	1233.332275	20.588242
242.759186	1128.658325	1633.823975	1174.168701	9.009001
243.137451	1144.586914	1692.987427	1242.434326	17.842327
243.515686	1146.862427	1802.212524	1226.505737	12.152788
243.893890	1142.311401	1745.324463	1249.260864	17.735846
244.272049	1055.841675	1875.029175	1262.914063	25.277777
244.650192	1140.035889	1761.253052	1301.597900	26.007332
245.028290	1135.484863	1672.507813	1224.230225	16.525433
245.406357	1135.484863	1663.405762	1260.638550	23.706902
245.784393	1144.586914	1617.895264	1171.893188	5.769236
246.162384	1149.138062	1617.895264	1256.087524	22.815535
246.540359	1140.035889	1647.477051	1119.556274	-4.035860
246.918289	1128.658325	1704.365112	1249.260864	20.948605
247.296204	1146.862427	1843.171875	1258.363037	16.013083
247.674057	1201.474976	2100.305664	1310.699951	12.151896
248.051895	1162.791138	2296.000488	1413.098389	22.088350
248.429703	1146.862427	2355.164063	1413.098389	22.033899
248.807465	1155.964600	2434.807373	1376.690063	17.259781
249.185196	1124.107300	2189.051025	1374.414551	23.504271
249.562897	1096.801025	2091.203613	1369.863525	27.459955
249.940567	1110.454102	1945.570313	1322.077637	25.340609
250.318192	1155.964600	1904.610962	1310.699951	20.668684
250.695801	1167.342163	1831.794189	1326.628662	23.972610
251.073349	1174.168701	1733.946899	1278.842651	18.699183
251.450882	1135.484863	1736.222412	1231.056763	15.909094
251.828400	1133.209351	1779.457275	1231.056763	15.140847
252.205872	1115.005249	1758.977539	1244.709839	20.141331
252.583313	1130.933838	1752.151001	1244.709839	18.315012
252.960693	1112.729614	1813.590088	1262.914063	21.428579
253.338074	1071.770264	1909.161987	1226.505737	18.478266
253.715408	1142.311401	1906.886475	1206.026001	8.333335
254.092682	1099.076538	1868.202637	1219.679199	15.680480
254.469955	1087.698975	1749.875488	1212.852539	18.900333
254.847198	1121.831787	1683.885376	1235.607788	20.242910
255.224365	1149.138062	1677.058838	1190.097412	7.758617
255.601563	1115.005249	1738.497925	1285.669312	27.372265
255.978683	1089.974487	1747.599976	1231.056763	21.453285
256.355743	1115.005249	1720.293701	1246.985352	21.804497
256.732819	1171.893188	1720.293701	1199.199463	4.979258
257.109894	1133.209351	1631.548462	1276.567139	28.767115
257.486877	1183.270874	1708.916138	1292.495850	20.779219
257.863831	1142.311401	1731.671387	1233.332275	15.444020
258.240753	1135.484863	1870.478149	1224.230225	12.074309
258.617645	1162.791138	1818.141113	1312.975464	22.916660
258.994507	1060.392700	1970.601074	1272.016113	23.249996
259.371307	1078.596802	2016.111450	1242.434326	17.475729
259.748108	1096.801025	2182.224365	1358.485962	24.109020
260.124878	1121.831787	2361.990479	1363.036987	19.449543
260.501617	1094.525513	2630.501953	1383.516602	18.814812
260.878296	1103.627563	2949.074951	1510.945801	22.071518
261.254944	1115.005249	3015.064941	1483.639526	19.401194
261.631561	1099.076538	3010.513916	1515.496826	21.785715
262.008179	1119.556274	2755.655762	1433.578125	19.193323
262.384735	1096.801025	2416.603027	1374.414551	21.034483
262.761261	1135.484863	2086.652588	1342.557251	21.770334
263.137695	1060.392700	2170.846924	1378.965576	28.688519
263.514191	1108.178589	2093.479248	1246.985352	14.087757
263.890594	1110.454102	2152.642578	1274.291626	15.720528
264.267029	1108.178589	2002.458252	1283.393677	19.592875
264.643341	1067.219238	2016.111450	1365.312500	31.414871
265.019653	1094.525513	2116.234375	1349.383789	24.944315
265.395935	1108.178589	2066.172852	1303.873413	20.427557
265.772217	1144.586914	1966.049927	1283.393677	16.897507
266.148407	1128.658325	1993.356201	1347.108276	25.263153
266.524597	1137.760376	2070.723877	1306.148926	18.048782
266.900726	1119.556274	2027.489014	1219.679199	11.027571
267.276855	1151.413574	2243.663574	1351.659302	18.333324
267.652924	1085.423462	2209.530762	1388.067749	26.923079
268.028992	1105.903076	2327.857666	1385.792114	22.905027
268.404999	1183.270874	2305.102539	1306.148926	10.953341
268.781006	1137.760376	2389.296875	1342.557251	16.363636
269.156921	1062.668213	2296.000488	1303.873413	19.557196
269.532837	1171.893188	2346.062012	1310.699951	11.821704
269.908661	1165.066650	2296.000488	1358.485962	17.102619
270.284546	1112.729614	2250.489990	1365.312500	22.200006
270.660339	1076.321289	2248.214600	1338.006226	22.330099
271.036133	1185.546387	2282.347412	1388.067749	18.464731
271.411835	1101.352051	2473.491211	1410.822876	22.553894
271.787537	1137.760376	2493.970703	1388.067749	18.456383
272.163239	1151.413574	2703.318604	1363.036987	13.636364
272.538849	1105.903076	2873.982666	1406.271851	16.988419
272.914459	1119.556274	2960.452637	1504.119263	20.889986
273.290070	1165.066650	2855.778564	1567.833862	23.822344
273.665588	1080.872437	2673.737061	1449.506714	23.142851
274.041046	1135.484863	2707.869873	1490.466064	22.575972
274.416565	1180.995239	2664.634766	1426.751587	16.564425
274.791962	1117.280762	2637.328613	1413.098389	19.461073
275.167389	1055.841675	2553.134277	1281.118164	15.045588
275.542755	1121.831787	2450.735840	1419.924927	22.431501
275.918060	1033.086426	2455.286865	1429.027100	27.840006
276.293365	1117.280762	2514.450439	1340.281738	15.960909
276.668640	1124.107300	2523.552490	1406.271851	20.162601
277.043854	1060.392700	2614.573486	1458.608887	25.622257
277.419037	1083.147949	2546.307861	1499.568237	28.460340
277.794189	1119.556274	2557.685303	1454.057739	23.259489
278.169312	1126.382813	2548.583252	1515.496826	27.359999
278.544373	1117.280762	2607.746826	1426.751587	20.763359
278.919464	1135.484863	2580.440674	1538.252075	27.874016
279.294464	1103.627563	2559.960938	1383.516602	19.218748
279.669464	1171.893188	2573.614014	1424.476074	18.019485
280.044403	1165.066650	2630.501953	1483.639526	21.739130
280.419312	1206.026001	2650.981689	1469.986450	18.267719
280.794189	1140.035889	2594.093750	1467.710938	22.535213
281.169037	1121.831787	2728.349365	1506.394775	23.937677
281.543854	1192.372925	2710.145264	1467.710938	18.140930
281.918671	1144.586914	2769.308838	1479.088501	20.588236
282.293365	1121.831787	2908.115479	1556.456177	24.331207
282.668091	1096.801025	3165.249512	1567.833862	22.772278
283.042786	1089.974487	3099.259277	1563.282837	23.556061
283.417419	1094.525513	3281.301025	1570.109375	21.748180
283.792053	1146.862427	3197.106689	1588.313477	21.531633
284.166595	1130.933838	2990.034424	1597.415649	25.091801
284.541138	1121.831787	3035.544678	1574.660400	23.662306
284.915619	1080.872437	2910.391113	1608.793213	28.855719
285.290100	1121.831787	3008.238525	1595.140137	25.090471
285.664520	1165.066650	3094.708252	1658.854614	25.589621
286.038940	1119.556274	3081.055176	1670.232300	28.074245
286.413300	1105.903076	3215.310791	1663.405762	26.429348
286.787628	1153.689087	3281.301025	1727.120239	26.951870
287.161896	1160.515625	3399.628174	1743.048950	26.016260
287.536194	1130.933838	3390.525879	1781.732788	28.801613
287.910400	1128.658325	3388.250488	1708.916138	25.679758
288.284607	1003.504700	3351.842041	1672.507813	28.488373
288.658752	1155.964600	3060.575439	1656.579102	26.284346
289.032867	1121.831787	3005.962891	1606.517700	25.724638
289.406921	1121.831787	3083.330566	1645.201538	26.682135
289.781006	1124.107300	3160.698486	1561.007324	21.452515
290.154999	1146.862427	3194.831299	1636.099487	23.888891
290.529022	1133.209351	3281.301025	1551.905151	19.491522
290.902954	1053.566162	3404.179199	1729.395752	28.751205
291.276825	1103.627563	3479.271240	1715.742676	25.766287
291.650757	1069.494751	3458.791504	1736.222412	27.904764
292.024597	1094.525513	3392.801514	1652.028076	24.257425
292.398407	1085.423462	3401.903564	1686.160889	25.933201
292.772156	1178.719727	3345.015625	1690.711914	23.634453
293.145905	1096.801025	3247.168213	1724.844727	29.206347
293.519592	1146.862427	3217.586426	1674.783325	25.494507
293.893280	1130.933838	3285.852051	1626.997314	23.020060
294.266907	1078.596802	3228.964111	1688.436401	28.359789
294.640533	1069.494751	3429.209961	1690.711914	26.325937
295.014069	1083.147949	3429.209961	1797.661377	30.455862
295.387604	1121.831787	3686.343750	1770.355225	25.288376
295.761078	1085.423462	3754.609375	1740.773438	24.552427
296.134552	1128.658325	3677.241699	1738.497925	23.928570
296.507996	1165.066650	3718.200928	1711.191650	21.390375
296.881378	1067.219238	3759.160400	1793.110352	26.965342
297.254730	1080.872437	3988.988037	1804.488037	24.882627
297.628021	1126.382813	4070.906738	1879.580200	25.579597
298.001282	1142.311401	4159.651855	1890.957764	24.811466
298.374573	1121.831787	4282.530273	1834.069824	22.534197
298.747803	1096.801025	4257.499512	1915.988525	25.917927
299.121002	1096.801025	3988.988037	1811.314575	24.704956
299.494141	1124.107300	3729.578613	1790.834839	25.589520
299.867188	1119.556274	3624.904541	1777.181763	26.248867
300.240265	1076.321289	3720.476563	1708.916138	23.924271
300.613312	1174.168701	3681.792725	1699.814087	20.961889
300.986328	1224.230225	3520.230713	1745.324463	22.695738
301.359314	1094.525513	3499.750977	1743.048950	26.963102
301.732239	1194.648438	3367.770752	1688.436401	22.722511
302.105103	1171.893188	3447.414063	1690.711914	22.799997
302.477997	1080.872437	3608.976074	1645.201538	22.322231
302.850830	1149.138062	3593.047363	1681.609863	21.787708
303.223602	1140.035889	3422.383301	1670.232300	23.230312
303.596375	1119.556274	3497.475586	1692.987427	24.114826
303.969116	1101.352051	3251.719238	1608.793213	23.597885
304.341766	1110.454102	3319.984863	1549.629639	19.876417
304.714478	1135.484863	3324.535889	1645.201538	23.284824
305.087067	1051.290649	3224.413086	1658.854614	27.958109
305.459656	1126.382813	3279.025391	1642.926025	23.995773
305.832214	1085.423462	3165.249512	1640.650513	26.695839
306.204681	1174.168701	3190.280273	1620.170776	22.121895
306.577148	1151.413574	3299.505127	1579.211426	19.915253
306.949646	1180.995239	3397.352539	1617.895264	19.712526
307.322021	1126.382813	3228.964111	1590.588989	22.077919
307.694397	1128.658325	3308.607178	1572.384888	20.354908
308.066742	1058.117188	3408.730225	1636.099487	24.588577
308.439026	1092.250000	3370.046387	1590.588989	21.878119
308.811279	1128.658325	3527.057129	1608.793213	20.018976
309.183502	1067.219238	3677.241699	1672.507813	23.190933
309.555695	1112.729614	3654.486328	1670.232300	21.933754
309.927887	1071.770264	3656.761963	1642.926025	22.095072
310.299988	1146.862427	3688.619141	1647.477051	19.695614
310.672058	1146.862427	3788.742188	1652.028076	19.121447
311.044128	1155.964600	3777.364502	1754.426514	22.829859
311.416168	1119.556274	3872.936523	1718.018188	21.735533
311.788147	1115.005249	3781.915527	1672.507813	20.904438
312.160065	1199.199463	3829.701416	1604.242188	15.397925
312.531982	1089.974487	3822.875000	1656.579102	20.732721
312.903870	1130.933838	3659.037354	1638.375000	20.072008
313.275696	1117.280762	3579.394287	1583.762451	18.946392
313.647491	1149.138062	3627.180176	1722.569214	23.140493
314.019318	1119.556274	3554.363525	1642.926025	21.495327
314.391022	1124.107300	3488.373291	1686.160889	23.772856
314.762726	1124.107300	3556.638916	1736.222412	25.163706
315.134369	1126.382813	3684.068115	1652.028076	20.551600
315.505981	1194.648438	3668.139648	1756.702026	22.723087
315.877594	1092.250000	3866.109863	1740.773438	23.379820
316.249146	1096.801025	3740.956299	1720.293701	23.580032
316.620636	1169.617676	3606.700439	1624.721802	18.674135
316.992157	1194.648438	3513.404053	1531.425537	14.524045
317.363586	1121.831787	3411.005615	1624.721802	21.968187
317.735016	1094.525513	3442.863037	1549.629639	19.379845
318.106354	1117.280762	3385.974854	1588.313477	20.762283
318.477722	1099.076538	3399.628174	1517.772339	18.199799
318.849060	1153.689087	3458.791504	1572.384888	18.163868
319.220306	1180.995239	3504.302002	1652.028076	20.274242
319.591522	1083.147949	3602.149414	1576.935913	19.602528
319.962738	1103.627563	3631.731201	1586.037964	19.081909
320.333923	1167.342163	3588.496338	1590.588989	17.481199
320.705017	1076.321289	3492.924316	1626.997314	22.787193
321.076111	1105.903076	3577.118652	1517.772339	16.666666
321.447144	1151.413574	3449.689453	1654.303589	21.881186
321.818176	1160.515625	3467.893799	1561.007324	17.357002
322.189178	1085.423462	3333.637939	1597.415649	22.773281
322.560120	1144.586914	3417.832275	1626.997314	21.221220
322.931030	1115.005249	3508.853027	1531.425537	17.395437
323.301910	1174.168701	3590.771729	1565.558350	16.195860
323.672729	1124.107300	3779.640137	1599.691162	17.909170
324.043549	1140.035889	3829.701416	1688.436401	20.389172
324.414337	1162.791138	3966.232666	1704.365112	19.318184
324.785095	1089.974487	4241.570801	1674.783325	18.555958
325.155792	1080.872437	4216.540039	1733.946899	20.827288
325.526428	1151.413574	4312.111816	1711.191650	17.710583
325.897034	1160.515625	4091.386475	1763.528564	20.574532
326.267670	1078.596802	4116.416992	1672.507813	19.550564
326.638184	1165.066650	3959.406250	1592.864502	15.309443
327.008728	1083.147949	4152.825684	1633.823975	17.939213
327.379211	1101.352051	4064.080078	1638.375000	18.125961
327.749634	1103.627563	4043.600586	1690.711914	19.969038
328.120026	1133.209351	4077.733398	1667.956787	18.160744
328.490417	1115.005249	3841.079102	1667.956787	20.283808
328.860748	1058.117188	3982.161377	1692.987427	21.712061
329.231079	1105.903076	3809.221924	1679.334351	21.212122
329.601318	1171.893188	3797.844238	1563.282837	14.904681
329.971558	1076.321289	3879.762939	1640.650513	20.129871
330.341736	1130.933838	3941.202148	1658.854614	18.785423
330.711914	1133.209351	3925.273438	1679.334351	19.559902
331.082062	1155.964600	4007.192139	1699.814087	19.074223
331.452148	1212.852539	3968.508301	1656.579102	16.102394
331.822174	1137.760376	3943.477539	1674.783325	19.140308
332.192200	1169.617676	4064.080078	1718.018188	18.946541
332.562134	1121.831787	4084.559814	1661.130127	18.202763
332.932129	1119.556274	4134.621094	1718.018188	19.849056
333.302063	1144.586914	4282.530273	1736.222412	18.854244
333.671906	1174.168701	4325.765137	1738.497925	17.906139
334.041718	1126.382813	4314.387207	1754.426514	19.700214
334.411499	1103.627563	4362.173340	1777.181763	20.670391
334.781281	1117.280762	4318.938477	1715.742676	18.692251
335.151001	1160.515625	4423.612305	1793.110352	19.386332
335.520721	1135.484863	4198.335938	1661.130127	17.161959
335.890350	1126.382813	4266.601563	1724.844727	19.057968
336.259979	1174.168701	4355.346680	1743.048950	17.882692
336.629547	1135.484863	4382.652832	1718.018188	17.939735
336.999084	1144.586914	4273.428223	1758.977539	19.636362
337.368622	1165.066650	4419.061523	1695.262939	16.293703
337.738098	1096.801025	4421.336914	1722.569214	18.822723
338.107513	1112.729614	4328.040527	1688.436401	17.905167
338.476898	1165.066650	4355.346680	1772.630737	19.044224
338.846252	1087.698975	4371.275391	1706.640625	18.849619
339.215576	1080.872437	4507.806641	1765.804199	19.986721
339.584869	1124.107300	4243.846191	1613.344238	15.681984
339.954132	1137.760376	4485.051270	1613.344238	14.208022
340.323334	1035.361938	4312.111816	1711.191650	20.625000
340.692505	1126.382813	4237.019531	1788.559326	21.287491
341.061646	1130.933838	4082.284424	1615.619751	16.422512
341.430786	1130.933838	4300.734375	1683.885376	17.444365
341.799896	1146.862427	4382.652832	1681.609863	16.526022
342.168915	1108.178589	4437.265625	1683.885376	17.293234
342.537903	1158.240112	4523.735352	1688.436401	15.753887
342.906830	1062.668213	4566.970215	1790.834839	20.779221
343.275757	1108.178589	4687.572754	1743.048950	17.736811
343.644684	1176.444214	4758.113770	1761.253052	16.327827
344.013550	1155.964600	4849.134766	1729.395752	15.526800
344.382355	1140.035889	4749.011719	1763.528564	17.276167
344.751129	1117.280762	5090.339844	1765.804199	16.323025
345.119873	1142.311401	5306.514648	1824.967651	16.393442
345.488586	1126.382813	5304.238770	1849.998413	17.320263
345.857269	1169.617676	5497.658203	1854.549438	15.825447
346.225891	1126.382813	5720.659180	1834.069824	15.403666
346.594482	1178.719727	5527.240234	1879.580200	16.117216
346.963043	976.198425	5600.056641	1856.824951	19.045275
347.331543	1074.045776	5397.535156	1752.151001	15.684212
347.700043	1115.005249	5254.177734	1797.661377	16.492575
348.068512	1135.484863	5133.574707	1799.937012	16.619240
348.436951	1080.872437	5067.584961	1647.477051	14.212327
348.805328	1105.903076	4824.104004	1681.609863	15.483477
349.173645	1153.689087	4846.859375	1738.497925	15.834873
349.541931	1169.617676	4924.227051	1729.395752	14.909090
349.910217	1096.801025	4937.880371	1670.232300	14.928910
350.278473	1085.423462	5147.228027	1702.089600	15.182073
350.646667	1092.250000	5026.625488	1772.630737	17.293234
351.014801	1128.658325	5249.626465	1838.620850	17.228052
351.382935	1144.586914	5279.208496	1806.763550	16.015411
351.751007	1087.698975	5204.116211	1747.599976	16.030956
352.119049	1140.035889	5267.830566	1790.834839	15.766262
352.487091	1112.729614	5315.616699	1749.875488	15.159719
352.855072	1069.494751	5440.770020	1702.089600	14.471631
353.222992	1149.138062	5192.738281	1786.283813	15.756893
353.590881	1201.474976	5565.923828	1781.732788	13.295100
353.958740	1126.382813	5556.821777	1765.804199	14.432461
354.326599	1158.240112	5759.343262	1784.008301	13.600395
354.694397	1121.831787	5825.333008	1875.029175	16.013548
355.062134	1140.035889	6059.711914	1797.661377	13.367252
355.429840	1133.209351	6241.753418	1854.549438	14.120268
355.797516	1103.627563	6294.090332	1861.375977	14.598860
356.165192	1167.342163	6118.875488	1920.539551	15.211397
356.532776	1160.515625	6512.540527	1956.947876	14.880952
356.900360	1135.484863	6608.112305	1952.396851	14.927236
357.267883	1101.352051	6705.959961	1904.610962	14.332116
357.635376	1124.107300	7195.196777	2007.009399	14.542729
358.002808	1144.586914	7529.698242	2025.213501	13.791875
358.370270	1128.658325	7525.147461	2032.040039	14.123087
358.737640	1117.280762	7591.137207	1981.978638	13.356767
359.105011	1115.005249	7613.892578	2016.111450	13.865546
359.472321	1137.760376	7504.667480	1997.907227	13.509649
359.839569	1165.066650	7406.820313	2000.182739	13.379510
360.206787	1099.076538	7174.717285	1981.978638	14.531836
360.574005	1121.831787	7306.697266	2009.284912	14.348786
360.941193	1108.178589	8005.282227	1900.059814	11.481359
361.308319	1180.995239	8314.752930	2152.642578	13.620414
361.675415	1071.770264	8747.101563	2195.877686	14.645719
362.042450	1201.474976	9238.614258	2302.827148	13.703286
362.409424	1135.484863	9655.035156	2273.245361	13.354701
362.776428	1099.076538	10223.915039	2268.694336	12.817956
363.143402	1049.015137	9670.963867	2405.225586	15.729743
363.510284	1144.586914	8986.031250	2200.428711	13.464890
363.877136	1096.801025	8194.150391	2159.469238	14.972747
364.243988	1146.862427	7582.035156	2007.009399	13.366339
364.610779	1103.627563	7247.533691	1977.427612	14.222223
364.977539	1146.862427	7361.309570	1997.907227	13.694618
365.344269	1137.760376	6928.960938	1945.570313	13.948919
365.710938	1140.035889	6940.338379	1909.161987	13.260102
366.077576	1153.689087	6803.807129	1911.437500	13.411196
366.444183	1089.974487	6742.368164	1886.406738	14.090177
366.810760	1142.311401	6580.806152	1879.580200	13.556487
367.177277	1103.627563	6665.000488	1838.620850	13.216040
367.543823	1062.668213	6787.878418	1847.722900	13.712243
367.910248	1094.525513	6567.152832	1829.518677	13.430352
368.276642	1146.862427	6617.214355	1804.488037	12.021632
368.643036	1180.995239	6564.877441	1784.008301	11.200338
369.009399	1128.658325	6485.234375	1870.478149	13.848768
369.375671	1121.831787	6321.396973	1847.722900	13.960611
369.741974	1153.689087	6398.764648	1829.518677	12.885031
370.108215	1064.943726	6514.815918	1784.008301	13.194155
370.474396	1105.903076	6341.876465	1845.447388	14.124294
370.840546	1135.484863	6419.244141	1884.131226	14.168820
371.206665	1115.005249	6437.448242	1806.763550	12.997007
371.572784	1155.964600	6621.765625	1840.896362	12.531224
371.938843	1105.903076	6726.439453	1813.590088	12.591094
372.304840	1076.321289	6767.398926	1884.131226	14.194323
372.670807	1165.066650	6776.500977	1845.447388	12.124898
373.036713	1231.056763	6899.378906	1806.763550	10.156564
373.402649	1110.454102	6678.653320	1770.355225	11.851249
373.768524	1083.147949	6771.949707	1768.079712	12.040001
374.134308	1135.484863	6851.593262	1834.069824	12.221338
374.500122	1144.586914	6865.246094	1888.682251	13.007161
374.865875	1060.392700	6944.889648	1756.702026	11.832946
375.231567	1158.240112	6799.256348	1859.100464	12.424363
375.597260	1128.658325	7097.349609	1740.773438	10.255432
375.962891	1087.698975	7308.972656	1827.243164	11.887344
376.328461	1201.474976	7242.982910	1872.753662	11.111112
376.694031	1092.250000	7393.166992	1936.468262	13.398339
377.059540	1092.250000	7786.832031	1872.753662	11.658736
377.425049	1087.698975	8210.079102	1925.090576	11.757188
377.790497	1115.005249	8298.824219	2050.244141	13.018687
378.155945	1101.352051	8606.019531	2059.346436	12.765314
378.521301	1099.076538	8460.386719	1963.774414	11.746522
378.886597	1076.321289	8371.640625	2061.621826	13.505927
379.251892	1117.280762	8016.659668	1961.498901	12.236147
379.617157	1078.596802	7784.556641	1941.019287	12.860538
379.982422	1110.454102	7682.158203	1991.080688	13.400277
380.347595	1051.290649	7456.881836	1884.131226	13.001775
380.712738	1119.556274	7370.412109	1849.998413	11.685473
381.077820	1128.658325	7481.912598	1911.437500	12.320916
381.442902	1130.933838	7402.269043	1865.927002	11.719884
381.807953	1153.689087	7545.626953	1840.896362	10.751157
382.172974	1112.729614	7363.585449	1870.478149	12.122316
382.537933	1069.494751	7356.758789	1797.661377	11.581614
382.902832	1176.444214	7493.290039	1747.599976	9.041787
383.267700	1142.311401	7616.167969	1806.763550	10.263622
383.632538	1105.903076	7620.719238	1836.345337	11.212016
383.997345	1153.689087	7739.046387	1784.008301	9.571527
384.362152	1026.259888	8103.129395	1904.610962	12.411576
384.726898	1089.974487	8080.374512	1872.753662	11.197917
385.091553	1133.209351	8212.354492	1920.539551	11.121826
385.456238	1108.178589	8175.946289	1927.366089	11.590470
385.820862	1133.209351	8094.027344	1879.580200	10.722459
386.185425	1117.280762	8212.354492	1929.641602	11.449646
386.549988	1092.250000	8296.548828	1954.672363	11.970941
386.914490	1155.964600	8580.989258	1847.722900	9.316580
387.278961	1199.199463	8560.508789	1909.161987	9.644514
387.643372	1210.577026	8635.601563	1931.917114	9.714986
388.007782	1115.005249	8535.478516	1995.631714	11.867524
388.372101	1146.862427	8592.366211	1995.631714	11.399756
388.736450	1119.556274	8646.979492	1934.192627	10.822248
389.100739	1151.413574	8631.050781	1906.886475	10.100395
389.464966	1137.760376	8426.253906	1881.855713	10.209179
389.829163	1135.484863	8369.365234	1884.131226	10.349167
390.193329	1053.566162	8526.375977	1840.896362	10.535933
390.557495	1105.903076	8478.590820	1827.243164	9.783951
390.921570	1146.862427	8590.090820	1941.019287	10.669521
391.285614	1085.423462	8883.632813	1861.375977	9.950394
391.649597	1055.841675	9202.206055	1963.774414	11.145251
392.013550	1064.943726	9568.565430	1997.907227	10.971366
392.377502	1058.117188	9871.208984	2007.009399	10.766849
392.741455	1176.444214	9925.821289	2066.172852	10.169051
393.105316	1080.872437	9859.832031	2025.213501	10.756867
393.469086	1151.413574	9618.625977	2061.621826	10.749798
393.832886	1062.668213	9641.381836	1941.019287	10.238727
394.196655	1130.933838	9586.769531	2032.040039	10.656619
394.560333	1124.107300	9773.362305	1984.254150	9.944751
394.924042	1160.515625	9937.199219	1936.468262	8.841069
395.287659	1142.311401	9975.882813	1997.907227	9.685730
395.651245	1128.658325	9814.321289	2045.693237	10.558030
396.014771	1146.862427	9434.309570	1934.192627	9.500274
396.378296	1105.903076	9108.910156	1977.427612	10.889964
396.741791	1099.076538	9036.092773	1886.406738	9.919725
397.105255	1130.933838	8890.459961	1859.100464	9.384163
397.468628	1137.760376	8617.397461	1777.181763	8.548829
397.832001	1089.974487	8653.805664	1918.264038	10.950662
398.195313	1064.943726	8692.489258	1847.722900	10.262530
398.558624	1042.188477	8854.051758	1831.794189	10.107777
398.921844	1137.760376	8774.408203	1884.131226	9.773540
399.285095	1135.484863	8672.009766	1875.029175	9.812802
399.648254	1160.515625	8926.868164	1895.508789	9.463814
400.011383	1037.637451	8958.725586	1872.753662	10.542949
400.374451	1158.240112	8801.714844	1895.508789	9.645727
400.737549	1135.484863	8815.367188	1863.651489	9.481482
401.100586	1158.240112	8617.397461	1827.243164	8.968883
401.463562	1121.831787	8844.949219	1834.069824	9.222157
401.826508	1117.280762	8988.307617	1840.896362	9.193408
402.189392	1121.831787	8797.163086	1818.141113	9.072042
402.552246	1158.240112	8883.632813	1799.937012	8.306334
402.915070	1089.974487	8963.276367	1902.335449	10.317920
403.277893	1112.729614	9231.788086	1931.917114	10.089685
403.640656	1103.627563	9359.216797	1797.661377	8.406836
404.003326	1167.342163	9682.340820	1902.335449	8.631748
404.366028	1174.168701	9789.290039	1868.202637	8.055998
404.728699	1117.280762	10121.516602	1886.406738	8.541823
405.091248	1149.138062	10430.987305	2027.489014	9.463102
405.453857	1119.556274	10622.130859	1934.192627	8.572797
405.816345	1105.903076	10394.579102	1881.855713	8.353748
406.178833	1121.831787	10248.945313	2057.070801	10.246821
406.541260	1115.005249	10394.579102	1925.090576	8.729769
406.903687	1171.893188	10085.108398	1843.171875	7.531275
407.266052	1203.750488	9932.648438	1972.876587	8.811262
407.628387	1174.168701	9880.311523	1847.722900	7.736540
407.990662	1153.689087	9684.616211	1845.447388	8.108829
408.352905	1126.382813	9896.240234	1952.396851	9.418785
408.715118	1117.280762	9914.444336	1802.212524	7.785825
409.077332	1130.933838	9529.880859	1956.947876	9.834733
409.439484	1167.342163	9816.596680	1915.988525	8.655617
409.801575	1146.862427	9764.259766	1888.682251	8.608397
410.163605	1167.342163	9809.770508	1861.375977	8.030541
410.525635	1169.617676	10219.364258	1859.100464	7.618808
410.887604	1160.515625	10114.690430	1831.794189	7.496822
411.249573	1169.617676	10349.068359	1938.743774	8.378781
411.611481	1046.739624	10235.292969	1904.610962	9.336305
411.973328	1169.617676	10267.149414	1941.019287	8.479241
412.335144	1126.382813	10201.160156	1847.722900	7.948846
412.696930	1115.005249	10219.364258	1931.917114	8.972755
413.058685	1096.801025	10103.312500	1979.703125	9.802931
413.420410	1185.546387	10155.649414	1886.406738	7.813292
413.782104	1103.627563	9934.923828	1881.855713	8.812162
414.143707	1101.352051	10221.639648	1859.100464	8.308383
414.505310	1199.199463	10246.669922	1854.549438	7.243461
414.866852	1158.240112	10201.160156	1897.784302	8.178157
415.228394	1112.729614	10567.518555	1822.692139	7.509026
415.589874	1071.770264	10681.294922	1959.223389	9.235141
415.951324	1151.413574	10544.763672	2020.662476	9.253876
416.312683	1196.923950	11029.449219	1972.876587	7.891692
416.674072	1169.617676	11241.073242	2007.009399	8.314506
417.035370	1162.791138	11332.093750	2029.764526	8.525396
417.396667	1089.974487	11839.535156	2009.284912	8.552074
417.757935	1062.668213	11850.912109	2020.662476	8.879983
418.119141	1108.178589	12192.240234	2070.723877	8.684049
418.480286	1135.484863	12686.028320	2072.999512	8.116629
418.841400	1158.240112	13109.275391	2154.918213	8.339680
419.202484	1144.586914	13525.695313	2189.051025	8.435950
419.563568	1049.015137	14215.178711	2063.897461	7.708261
419.924591	1133.209351	14847.773438	2334.684326	8.760577
420.285553	1089.974487	14786.333984	2305.102539	8.871905
420.646484	1124.107300	16060.625977	2405.225586	8.577087
421.007355	1076.321289	16636.332031	2387.021240	8.423515
421.368225	1171.893188	17164.253906	2468.940186	8.110416
421.729065	1151.413574	17617.082031	2471.215576	8.015478
422.089874	1092.250000	18195.064453	2516.726074	8.328898
422.450592	1099.076538	18108.593750	2459.837891	8.000000
422.811279	1074.045776	18092.666016	2430.256104	7.968979
423.171936	1151.413574	17962.960938	2541.756836	8.270168
423.532593	1103.627563	17792.296875	2493.970703	8.331060
423.893127	1101.352051	17967.511719	2539.481201	8.526713
424.253723	1203.750488	18302.013672	2516.726074	7.678999
424.614197	1151.413574	18393.035156	2443.909424	7.496371
424.974670	1110.454102	18729.812500	2555.409912	8.200955
425.335052	1108.178589	19203.119141	2587.267090	8.174045
425.695496	1144.586914	18263.330078	2598.644775	8.493953
426.055817	1162.791138	18358.902344	2616.848877	8.455736
426.416168	1140.035889	18479.503906	2541.756836	8.083990
426.776398	1130.933838	17225.693359	2339.235352	7.507422
427.136627	1076.321289	16615.853516	2396.123291	8.493190
427.496826	1212.852539	16404.228516	2409.776611	7.878971
427.856995	1124.107300	15714.747070	2316.480225	8.172177
428.217102	1074.045776	15057.121094	2225.459229	8.234337
428.577179	1067.219238	15182.274414	2200.428711	8.028375
428.937195	1108.178589	14877.355469	2218.632813	8.064783
429.297180	1185.546387	14313.025391	2230.010498	7.956319
429.657135	1165.066650	14167.392578	2298.276123	8.715436
430.017059	1130.933838	14408.597656	2216.357178	8.174807
430.376984	1124.107300	14117.331055	2211.806152	8.371278
430.736786	1108.178589	13805.584961	2091.203613	7.741936
431.096588	1151.413574	13566.655273	2129.887451	7.881231
431.456360	1133.209351	13876.125977	2138.989502	7.892857
431.816071	1130.933838	13266.286133	2152.642578	8.419275
432.175781	1124.107300	13630.369141	2070.723877	7.569141
432.535400	1108.178589	13589.410156	2159.469238	8.422972
432.895020	1110.454102	13659.951172	2138.989502	8.195829
433.254578	1096.801025	13659.951172	2182.224365	8.639738
433.614105	1055.841675	14055.891602	2159.469238	8.489410
433.973602	1094.525513	14492.791992	2261.867676	8.712636
434.333038	1119.556274	14215.178711	2191.326416	8.184187
434.692444	1115.005249	14588.364258	2182.224365	7.920958
435.051819	1062.668213	14688.486328	2266.418701	8.834335
435.411133	1110.454102	14825.017578	2270.969727	8.461922
435.770416	1096.801025	13978.524414	2202.704102	8.585055
436.129669	1099.076538	14740.824219	2173.122314	7.873227
436.488861	1062.668213	14283.444336	2239.112549	8.898451
436.848083	1180.995239	14151.463867	2209.530762	7.929825
437.207184	1199.199463	14219.729492	2204.979736	7.724572
437.566254	1135.484863	14490.516602	2286.898438	8.621572
437.925293	1110.454102	14465.485352	2264.143311	8.638611
438.284363	1146.862427	14474.587891	2341.510986	8.963634
438.643311	1121.831787	14895.559570	2255.041016	8.227324
439.002258	1140.035889	14784.058594	2270.969727	8.288859
439.361145	1260.638550	15532.705078	2289.173828	7.206632
439.719971	1124.107300	16067.452148	2321.031250	8.009746
440.078827	1105.903076	16160.749023	2437.082764	8.842201
440.437592	1128.658325	16809.271484	2418.878662	8.228125
440.796295	1049.015137	16959.457031	2391.572266	8.438214
441.155029	1103.627563	17767.265625	2498.521729	8.370886
441.513672	1110.454102	18297.462891	2562.236328	8.446975
441.872253	1187.821899	18154.105469	2628.226563	8.489807
442.230865	1076.321289	17605.705078	2637.328613	9.443833
442.589386	1085.423462	17739.960938	2548.583252	8.785353
442.947876	1121.831787	17587.500000	2457.562500	8.112217
443.306335	1160.515625	17435.041016	2544.032227	8.501118
443.664764	1158.240112	16292.728516	2532.654541	9.081341
444.023102	1105.903076	16809.271484	2489.419678	8.810318
444.381500	1071.770264	16688.669922	2423.429688	8.655107
444.739777	1115.005249	16829.751953	2443.909424	8.456414
445.098022	1112.729614	17027.722656	2544.032227	8.993423
445.456238	1074.045776	16816.099609	2537.205811	9.294595
445.814423	1092.250000	17423.662109	2553.134277	8.945242
446.172577	1124.107300	18329.320313	2669.185791	8.980292
446.530701	1117.280762	18502.259766	2605.471436	8.560210
446.888733	1146.862427	18923.230469	2555.409912	7.923708
447.246765	1071.770264	19824.337891	2810.268311	9.270720
447.604736	1135.484863	19398.814453	2644.155273	8.260653
447.962677	1069.494751	19378.335938	2778.410889	9.333830
448.320587	1103.627563	19612.712891	2682.839111	8.532088
448.678436	1171.893188	19376.060547	2764.757813	8.750000
449.036255	1101.352051	19171.263672	2694.216553	8.815010
449.394043	1080.872437	18165.482422	2676.012451	9.336707
449.751770	1121.831787	18577.351563	2619.124512	8.577761
450.109467	1130.933838	18195.064453	2553.134277	8.334444
450.467163	1121.831787	17692.173828	2600.920166	8.926119
450.824768	1137.760376	17526.060547	2519.001465	8.428214
451.182343	1140.035889	17180.181641	2596.369141	9.079302
451.539886	1087.698975	16511.179688	2530.379150	9.353791
451.897369	1074.045776	16818.375000	2632.777588	9.900274
452.254822	1108.178589	16527.107422	2548.583252	9.341795
452.612274	1115.005249	17064.130859	2455.286865	8.403480
452.969635	1119.556274	16850.232422	2348.337402	7.811369
453.326965	1121.831787	16579.445313	2516.726074	9.023995
453.684326	1110.454102	16574.892578	2475.766602	8.828723
454.041534	1042.188477	16290.453125	2427.980713	9.088197
454.398773	1144.586914	15771.634766	2473.491211	9.085253
454.755951	1112.729614	15605.521484	2407.500977	8.933899
455.113098	1096.801025	15077.600586	2446.184814	9.651692
455.470215	1094.525513	15207.305664	2423.429688	9.416317
455.827240	1121.831787	15088.978516	2434.807373	9.400456
456.184265	1099.076538	15048.019531	2418.878662	9.461664
456.541260	1160.515625	14916.039063	2359.715088	8.717949
456.898193	1099.076538	15207.305664	2350.613037	8.870968
457.255096	1115.005249	15352.938477	2387.021240	8.933993
457.611969	1146.862427	15141.315430	2307.378174	8.292684
457.968781	1115.005249	15109.458008	2393.847900	9.138211
458.325531	1149.138062	15318.805664	2421.154053	8.977035
458.682312	1137.760376	16374.647461	2391.572266	8.228793
459.039001	1128.658325	16679.568359	2614.573486	9.555165
459.395630	1176.444214	17664.867188	2584.991699	8.542645
459.752289	1128.658325	18577.351563	2689.665527	8.946270
460.108856	1115.005249	20338.605469	2807.992676	8.806818
460.465363	1190.097412	20923.414063	2821.645752	8.267988
460.821899	1112.729614	21157.792969	2885.360352	8.843228
461.178345	1124.107300	20495.615234	2798.890625	8.645601
461.534760	1069.494751	20183.869141	2776.135498	8.928572
461.891144	1074.045776	19822.062500	2864.880615	9.552129
462.247467	1130.933838	18272.431641	2648.706299	8.854375
462.603760	1108.178589	18226.921875	2673.737061	9.145288
462.960052	1076.321289	17271.203125	2541.756836	9.048758
463.316254	1042.188477	16859.333984	2528.103516	9.394331
463.672424	1128.658325	16349.617188	2596.369141	9.642696
464.028564	1112.729614	16115.238281	2532.654541	9.464583
464.384644	1121.831787	16010.564453	2555.409912	9.628611
464.740723	1087.698975	15917.267578	2493.970703	9.482890
465.096741	1078.596802	16167.575195	2482.593262	9.304781
465.452698	1160.515625	15687.440430	2484.868652	9.116541
465.808655	1080.872437	15869.482422	2573.614014	10.093860
466.164520	1176.444214	15928.645508	2464.388916	8.730526
466.520355	1149.138062	16392.851563	2466.664551	8.643081
466.876190	1080.872437	16515.730469	2623.675537	9.995577
467.231964	1124.107300	16388.300781	2519.001465	9.138342
467.587677	1210.577026	17095.988281	2562.236328	8.508809
467.943390	1153.689087	17398.632813	2653.257324	9.230985
468.299011	1165.066650	16822.925781	2514.450439	8.617932
468.654633	1060.392700	16722.802734	2448.460449	8.862414
469.010223	1121.831787	16768.312500	2464.388916	8.580569
469.365723	1135.484863	16190.330078	2523.552490	9.220072
469.721191	1169.617676	16538.484375	2532.654541	8.868818
470.076660	1110.454102	15651.032227	2516.726074	9.671362
470.432068	1092.250000	16035.594727	2505.348389	9.456373
470.787445	1130.933838	15753.430664	2546.307861	9.679428
471.142792	1135.484863	15707.919922	2496.246338	9.337914
471.498016	1130.933838	16269.973633	2507.624023	9.093642
471.853271	1153.689087	16044.697266	2493.970703	9.000610
472.208496	1064.943726	15944.574219	2439.358398	9.236887
472.563660	1137.760376	16101.584961	2473.491211	8.926400
472.918762	1130.933838	16356.443359	2541.756836	9.266179
473.273865	1155.964600	16870.710938	2685.114502	9.730669
473.628876	1108.178589	17596.601563	2682.839111	9.550097
473.983917	1128.658325	17155.150391	2614.573486	9.271618
474.338837	1144.586914	17239.345703	2500.797363	8.426411
474.693787	1160.515625	17255.273438	2650.981689	9.260569
475.048645	1062.668213	17146.048828	2619.124512	9.677420
475.403503	1146.862427	17264.376953	2594.093750	8.979246
475.758270	1069.494751	17598.876953	2646.430664	9.540198
476.113037	1117.280762	17073.232422	2632.777588	9.498004
476.467773	1155.964600	17755.888672	2728.349365	9.472240
476.822418	1187.821899	18370.279297	2767.033203	9.190835
477.177063	1162.791138	18236.023438	2707.869873	9.049714
477.531647	1085.423462	18741.189453	2689.665527	9.086222
477.886200	1117.280762	19159.884766	2760.206787	9.105815
478.240723	1053.566162	19487.560547	2844.401123	9.714850
478.595184	1221.954712	19899.429688	2869.431641	8.820662
478.949585	1105.903076	20202.074219	2917.217773	9.485224
479.303986	1144.586914	20570.708984	2937.697266	9.230409
479.658325	1067.219238	20618.494141	2892.187012	9.334265
480.012634	1039.912964	20866.525391	2858.054199	9.170206
480.366913	1124.107300	21510.498047	3074.228516	9.565800
480.721130	1117.280762	21774.458984	3028.718262	9.253139
481.075317	1185.546387	22186.328125	3058.300049	8.917542
481.429474	1174.168701	23121.566406	3249.443604	9.455676
481.783569	1169.617676	23977.162109	3249.443604	9.119026
482.137604	1108.178589	25519.964844	3203.933350	8.585012
482.491669	1030.810913	27715.843750	3506.577637	9.277735
482.845612	1158.240112	30471.500000	3872.936523	9.260984
483.199554	1099.076538	34078.199219	4141.447754	9.225143
483.553436	1228.781250	39191.292969	4541.939453	8.727448
483.907318	1076.321289	46238.582031	5242.799805	9.225575
484.261139	1124.107300	52971.847656	5907.251953	9.225367
484.614899	1174.168701	56059.730469	6259.957520	9.266170
484.968628	1185.546387	56178.058594	6423.795410	9.525386
485.322357	1128.658325	54141.464844	6123.426270	9.421814
485.675964	1133.209351	50912.503906	5777.547363	9.329859
486.029572	1083.147949	47458.261719	5370.229004	9.244357
486.383148	1137.760376	44158.757813	5058.482910	9.113510
486.736694	1190.097412	42135.820313	4874.165527	8.997443
487.090149	1153.689087	41844.550781	4867.338867	9.126495
487.443604	1121.831787	42311.035156	5022.074219	9.469090
487.796997	1180.995239	43730.957031	5067.584961	9.134179
488.150360	1060.392700	45353.406250	5172.258789	9.283329
488.503693	1115.005249	45690.183594	5179.085449	9.117361
488.856964	1153.689087	45214.597656	5147.228027	9.063678
489.210175	1080.872437	43407.835938	5028.900879	9.327455
489.563416	1101.352051	41471.367188	4792.246582	9.142663
489.916565	1060.392700	39239.082031	4566.970215	9.184647
490.269653	1160.515625	36629.058594	4227.917480	8.648232
490.622772	1099.076538	35306.980469	4300.734375	9.359409
490.975769	1165.066650	35072.601563	4177.855957	8.885309
491.328735	1121.831787	36212.636719	4173.305176	8.695934
491.681732	1069.494751	38310.667969	4482.775879	9.165343
492.034607	1083.147949	39716.941406	4717.154785	9.406291
492.387482	1185.546387	40822.843750	4921.951660	9.426489
492.740326	1119.556274	40385.941406	4689.848145	9.092489
493.093079	1135.484863	38711.160156	4644.337891	9.338097
493.445862	1103.627563	35589.144531	4400.857422	9.561202
493.798523	1176.444214	33186.195313	4064.080078	9.021112
494.151215	1128.658325	30680.847656	3829.701416	9.139908
494.503815	1076.321289	28628.328125	3540.710449	8.944499
494.856384	1151.413574	27258.462891	3370.046387	8.498214
495.208923	1074.045776	25824.884766	3267.647949	8.862738
495.561432	1021.708862	24709.880859	3265.372314	9.471662
495.913879	1162.791138	24639.339844	3258.545898	8.927014
496.266296	1051.290649	24532.390625	3331.362549	9.710243
496.618683	1155.964600	24648.441406	3110.636963	8.320418
496.970978	1180.995239	25073.962891	3281.301025	8.790477
497.323273	1180.995239	24837.308594	3367.770752	9.243940
497.675507	1140.035889	25403.914063	3399.628174	9.312576
498.027710	1092.250000	25426.669922	3301.780762	9.079858
498.379852	1133.209351	25199.117188	3265.372314	8.859683
498.731995	1249.260864	25349.300781	3281.301025	8.431688
499.084076	1233.332275	24147.826172	3219.861816	8.669314
499.436096	1135.484863	24684.849609	3228.964111	8.889749
499.788086	1158.240112	23786.019531	3174.351563	8.909895
500.140106	1228.781250	23654.039063	3090.157227	8.300355
500.491943	1160.515625	22611.849609	3049.197754	8.804498
500.843842	1151.413574	22413.880859	2992.309814	8.657962
501.195679	1133.209351	22154.470703	2992.309814	8.843905
501.547455	1103.627563	21685.712891	3003.687500	9.231620
501.899231	1103.627563	21556.007813	2987.758789	9.212283
502.250885	1064.943726	21298.875000	3051.473389	9.817814
502.602600	1115.005249	20868.800781	2885.360352	8.962101
502.954193	1076.321289	21328.457031	2883.084961	8.921349
503.305786	1064.943726	21307.976563	2914.942139	9.138939
503.657379	1103.627563	21460.437500	2876.258301	8.707802
504.008820	1146.862427	20850.597656	2821.645752	8.499827
504.360291	1135.484863	21296.599609	2901.289063	8.758465
504.711700	1074.045776	21408.099609	3030.993652	9.623992
505.063080	1108.178589	21615.171875	3003.687500	9.243232
505.414368	1128.658325	21521.875000	2914.942139	8.759206
505.765656	1119.556274	21394.447266	2996.860840	9.259258
506.116943	1151.413574	21774.458984	2974.105713	8.838133
506.468109	1171.893188	21282.945313	2903.564453	8.610545
506.819305	1101.352051	21182.822266	2962.728027	9.269122
507.170410	1096.801025	20952.996094	2953.625977	9.351363
507.521484	1174.168701	21203.302734	2910.391113	8.668485
507.872559	1155.964600	21708.468750	3030.993652	9.123117
508.223480	1162.791138	21733.500000	2867.156250	8.285398
508.574493	1183.270874	21692.539063	2933.146240	8.532120
508.925385	1103.627563	22197.705078	3115.187988	9.536139
509.276245	1105.903076	22397.951172	3003.687500	8.913114
509.627045	1128.658325	22477.593750	3028.718262	8.900022
509.977814	1087.698975	22905.392578	2946.799316	8.521068
510.328613	1165.066650	22816.646484	3040.095703	8.660010
510.679260	1119.556274	23030.546875	3101.534912	9.045591
511.029999	1137.760376	23233.068359	3099.259277	8.877445
511.380585	1126.382813	23055.576172	3062.851074	8.830549
511.731140	1153.689087	23608.527344	3149.320801	8.887313
512.081726	1151.413574	23781.468750	3165.249512	8.898944
512.432129	1078.596802	24288.908203	3169.800537	9.009805
512.782654	1076.321289	23997.642578	3217.586426	9.341805
513.133057	1149.138062	24323.041016	3194.831299	8.827574
513.483398	1162.791138	23963.509766	3297.229736	9.361278
513.833801	1149.138062	24245.673828	3140.218750	8.620690
514.183960	1235.607788	23624.457031	3217.586426	8.852526
514.534302	1099.076538	23799.671875	3162.973877	9.091821
514.884460	1105.903076	23524.333984	3106.085938	8.922047
515.234619	1085.423462	23360.496094	3167.524902	9.347227
515.584717	1076.321289	23663.140625	3085.606201	8.895829
515.934753	1110.454102	23610.804688	3167.524902	9.142394
516.284851	1108.178589	23558.466797	3117.463379	8.949928
516.634766	1089.974487	24161.480469	3244.892578	9.340171
516.984741	1069.494751	24311.664063	3165.249512	9.017036
517.334595	1067.219238	24819.105469	3313.158203	9.455834
517.684448	1158.240112	25633.742188	3370.046387	9.036817
518.034363	1039.912964	26398.316406	3385.974854	9.251616
518.384094	1142.311401	27431.402344	3602.149414	9.356876
518.733826	1171.893188	28783.062500	3529.332764	8.537992
519.083496	1085.423462	29151.697266	3718.200928	9.380573
519.433167	1126.382813	30034.599609	3957.130615	9.792191
519.782776	1149.138062	29845.730469	3720.476563	8.960431
520.132324	1105.903076	29472.544922	3647.659912	8.960373
520.481873	1146.862427	28835.400391	3695.445801	9.204472
520.831299	1130.933838	28207.355469	3604.425049	9.135221
521.180786	1094.525513	27611.169922	3536.159424	9.207929
521.530151	1085.423462	26832.941406	3431.485352	9.111799
521.879517	1167.342163	26209.449219	3486.097900	9.259428
522.228882	1087.698975	26798.808594	3381.423828	8.921144
522.578064	1167.342163	26188.968750	3524.781738	9.421607
522.927307	1144.586914	26498.439453	3556.638916	9.513553
523.276489	1055.841675	26211.724609	3531.608398	9.841701
523.625610	1069.494751	26625.869141	3429.209961	9.233373
523.974792	1146.862427	27244.810547	3499.750977	9.015608
524.323792	1119.556274	26987.675781	3608.976074	9.623506
524.672852	1130.933838	27533.800781	3652.210938	9.549255
525.021790	1083.147949	28635.154297	3624.904541	9.225305
525.370728	1092.250000	29734.230469	3793.293213	9.430365
525.719604	1171.893188	31470.453125	3918.446777	9.064964
526.068420	1171.893188	33006.429688	4043.600586	9.020730
526.417297	1165.066650	34314.855469	4237.019531	9.266885
526.765991	1037.637451	35332.011719	4323.489746	9.581316
527.114746	1083.147949	36481.148438	4384.928711	9.327591
527.463379	1146.862427	38099.042969	4610.205078	9.372499
527.812012	1155.964600	40194.800781	4705.776855	9.093028
528.160706	1155.964600	43064.230469	5026.625488	9.236032
528.509155	1180.995239	47123.761719	5445.321289	9.281823
528.857727	1151.413574	52205.000000	5939.109375	9.377786
529.206177	1140.035889	55520.433594	6371.458008	9.620050
529.554565	1076.321289	56421.539063	6692.306641	10.147192
529.902893	1135.484863	55429.410156	6376.009277	9.652138
530.251221	1080.872437	53292.695313	6116.600098	9.644803
530.599548	1112.729614	49820.253906	5766.169922	9.553843
530.947876	1142.311401	46748.300781	5418.015137	9.375312
531.296021	1142.311401	43280.406250	5117.646484	9.434065
531.644165	1194.648438	40602.117188	4951.533203	9.533433
531.992249	1103.627563	38679.300781	4621.582520	9.362321
532.340454	1121.831787	37277.582031	4505.531250	9.358676
532.688354	1149.138062	36927.152344	4564.694824	9.546523
533.036438	1117.280762	38023.953125	4687.572754	9.673839
533.384338	1201.474976	39753.347656	4849.134766	9.461693
533.732239	1053.566162	41334.835938	5038.002930	9.891538
534.080139	1219.679199	42292.828125	5044.829590	9.313020
534.427917	1133.209351	41801.316406	4990.217285	9.484110
534.775757	1128.658325	40153.839844	4901.471680	9.667639
535.123474	1178.719727	38340.250000	4742.185547	9.589126
535.471191	1185.546387	36497.078125	4466.847168	9.292434
535.818848	1194.648438	35627.828125	4359.897949	9.192440
536.166382	1071.770264	34335.332031	4237.019531	9.515665
536.513977	1044.463989	34048.617188	4298.458984	9.859350
536.861511	1162.791138	34137.363281	4321.213867	9.578360
537.208984	1051.290649	34396.773438	4248.397461	9.587826
537.556396	1185.546387	33971.250000	4353.071289	9.661300
537.903809	1105.903076	33286.316406	4191.509277	9.588460
538.251160	1149.138062	32298.742188	4157.376465	9.657389
538.598389	1176.444214	31688.902344	4105.039551	9.598031
538.945740	1085.423462	30273.529297	4004.916504	10.002338
539.292969	1135.484863	29722.853516	3827.426025	9.416540
539.640137	1076.321289	29379.250000	3936.650879	10.106126
539.987244	1133.209351	29527.158203	3922.997803	9.825293
540.334351	1119.556274	30134.722656	4036.773926	10.054113
540.681458	1080.872437	31845.914063	4223.366699	10.214497
541.028442	1185.546387	34210.179688	4380.377441	9.674085
541.375366	1194.648438	37277.582031	4439.541016	8.992873
541.722290	1137.760376	40238.035156	4940.155762	9.724729
542.069153	1124.107300	43157.527344	5188.187500	9.668687
542.416016	1140.035889	42868.535156	5231.422363	9.804777
542.762756	1094.525513	42276.902344	5199.564941	9.967953
543.109558	1126.382813	40920.691406	4999.319336	9.732388
543.456299	1105.903076	39582.683594	4887.818848	9.829085
543.802917	1060.392700	38246.953125	4869.614746	10.243546
544.149536	1078.596802	36767.863281	4783.144531	10.380006
544.496094	1174.168701	34230.660156	4441.816406	9.885040
544.842651	1099.076538	32988.226563	4280.254395	9.975737
545.189148	1044.463989	31199.666016	4077.733398	10.058860
545.535583	1105.903076	29854.832031	4009.467773	10.099731
545.882019	1126.382813	29354.218750	3993.539063	10.157195
546.228333	1124.107300	28368.917969	3911.620361	10.231355
546.574707	1130.933838	28441.734375	3941.202148	10.289952
546.920898	1155.964600	28580.541016	3904.793701	10.023232
547.267212	1142.311401	28548.683594	4014.018799	10.478248
547.613342	1119.556274	28484.968750	3984.437012	10.468985
547.959473	1153.689087	27831.894531	3991.263428	10.636301
548.305664	1103.627563	27099.177734	3982.161377	11.073178
548.651611	1087.698975	26446.103516	3750.058350	10.498923
548.997742	1126.382813	25563.201172	3722.751953	10.624825
549.343689	1235.607788	24090.939453	3549.812500	10.125447
549.689575	1105.903076	23572.119141	3483.822266	10.584422
550.035522	1133.209351	22930.423828	3404.179199	10.418623
550.381287	1074.045776	21835.898438	3345.015625	10.938184
550.727173	1144.586914	21517.324219	3281.301025	10.488105
551.072876	1078.596802	21048.568359	3267.647949	10.961715
551.418640	1144.586914	21046.291016	3354.117676	11.102220
551.764282	1099.076538	20652.626953	3258.545898	11.043873
552.109863	1142.311401	20684.484375	3283.576416	10.957150
552.455505	1121.831787	20916.587891	3476.995850	11.897920
552.801025	1105.903076	20816.464844	3269.923340	10.978988
553.146545	1146.862427	21205.578125	3324.535889	10.856495
553.491943	1169.617676	21451.333984	3333.637939	10.669808
553.837341	1105.903076	21485.466797	3486.097900	11.679321
554.182800	1192.372925	21210.128906	3463.342773	11.344777
554.528015	1108.178589	21025.812500	3415.556641	11.584598
554.873352	1126.382813	20516.095703	3340.464600	11.418848
555.218628	1137.760376	20395.492188	3372.321777	11.603451
555.563721	1117.280762	20147.460938	3370.046387	11.837858
555.908875	1137.760376	19967.695313	3436.036377	12.205437
556.254028	1174.168701	19578.580078	3354.117676	11.844708
556.599121	1071.770264	19239.529297	3235.790527	11.911322
556.944031	1226.505737	19230.425781	3203.933350	10.983317
557.289063	1133.209351	18889.097656	3260.821289	11.982570
557.633972	1135.484863	18900.476563	3322.260254	12.309464
557.978882	1192.372925	18684.300781	3417.832275	12.722780
558.323792	1128.658325	18613.759766	3383.699463	12.896929
558.668518	1089.974487	18247.400391	3222.137451	12.427057
559.013306	1171.893188	18381.656250	3363.219727	12.733044
559.358032	1174.168701	18408.962891	3340.464600	12.569316
559.702637	1135.484863	18286.085938	3317.709229	12.723894
560.047363	1185.546387	18354.351563	3445.138428	13.161033
560.391846	1067.219238	18331.595703	3438.312012	13.734018
560.736450	1103.627563	18085.839844	3438.312012	13.747823
561.080933	1144.586914	18281.533203	3488.373291	13.676804
561.425354	1119.556274	18042.603516	3390.525879	13.419391
561.769775	1155.964600	18431.718750	3481.546875	13.461538
562.114136	1117.280762	18577.351563	3549.812500	13.931970
562.458496	1142.311401	18684.300781	3549.812500	13.724218
562.802673	1174.168701	18695.679688	3709.098877	14.467531
563.146912	1128.658325	18506.810547	3552.087891	13.945267
563.491150	1126.382813	18074.460938	3568.016602	14.406552
563.835266	1089.974487	18276.982422	3558.914551	14.365153
564.179443	1076.321289	18261.054688	3672.690674	15.108581
564.523438	1060.392700	18361.177734	3599.874023	14.678417
564.867493	1064.943726	18324.769531	3722.751953	15.398811
565.211426	1049.015137	18402.136719	3738.680664	15.499607
565.555359	1115.005249	18757.117188	3777.364502	15.090934
565.899231	1133.209351	19014.251953	3982.161377	15.932808
566.243042	1108.178589	19412.468750	3991.263428	15.750870
566.586914	1121.831787	20101.951172	4052.702637	15.441793
566.930603	1151.413574	20329.501953	4109.590332	15.424774
567.274292	1178.719727	20488.789063	4209.713379	15.696441
567.617981	1108.178589	20543.402344	4232.468750	16.075399
567.961609	1112.729614	20354.533203	4303.009766	16.579945
568.305237	1187.821899	19815.234375	4246.121582	16.418276
568.648682	1155.964600	19694.632813	4223.366699	16.545969
568.992188	1092.250000	19665.050781	4164.203125	16.540064
569.335632	1119.556274	19109.824219	4205.162598	17.151531
569.679016	1080.872437	19077.966797	4293.907715	17.853077
570.022461	1064.943726	18861.791016	4255.224121	17.926098
570.365662	1112.729614	19125.751953	4264.326172	17.496214
570.708984	1030.810913	18968.742188	4157.376465	17.429911
571.052185	1089.974487	19105.273438	4378.102051	18.251862
571.395386	1115.005249	19050.660156	4601.103027	19.436691
571.738525	1117.280762	19389.712891	4626.133789	19.202990
572.081604	1180.995239	19935.837891	4505.531250	17.726282
572.424683	1121.831787	20563.880859	4664.817871	18.223316
572.767578	1201.474976	20716.341797	4771.767090	18.295240
573.110596	1176.444214	20566.156250	4981.115234	19.622110
573.453552	1155.964600	20331.779297	4862.788086	19.330723
573.796387	1146.862427	20379.564453	4819.553223	19.096075
574.139282	1192.372925	20088.296875	4921.951660	19.737476
574.481995	1080.872437	20097.400391	4817.277344	19.648197
574.824768	1089.974487	20086.021484	4855.961426	19.825108
575.167480	1112.729614	20004.103516	4896.920898	20.031321
575.510132	1137.760376	19564.927734	4853.686035	20.165474
575.852722	1110.454102	19749.244141	4821.828613	19.912102
576.195251	1167.342163	19558.101563	4853.686035	20.044542
576.537842	1108.178589	19214.498047	4935.604492	21.138617
576.880188	1130.933838	18980.119141	5026.625488	21.825600
577.222717	1183.270874	18534.117188	4853.686035	21.154099
577.565063	1062.668213	18386.208984	4723.980957	21.134897
577.907410	1146.862427	18295.187500	4728.532227	20.886414
578.249756	1144.586914	17689.898438	4714.878906	21.578873
578.591919	1169.617676	17419.111328	4607.929688	21.159502
578.934204	1130.933838	16898.017578	4573.796875	21.835762
579.276306	1089.974487	16588.546875	4555.592773	22.360886
579.618469	1140.035889	16265.422852	4462.296387	21.964798
579.960571	1219.679199	16269.973633	4535.112793	22.029028
580.302551	1215.128052	15685.165039	4471.398438	22.503540
580.644531	1160.515625	15933.196289	4448.643066	22.258163
580.986511	1137.760376	15694.266602	4412.234863	22.494923
581.328369	1096.801025	15407.551758	4350.795898	22.738113
581.670227	1206.026001	15250.540039	4457.745117	23.152950
582.012024	1108.178589	15098.080078	4453.194336	23.910215
582.353821	1126.382813	15077.600586	4441.816406	23.764475
582.695496	1112.729614	14902.385742	4398.581543	23.828382
583.037231	1064.943726	14854.599609	4339.417969	23.745872
583.378845	1080.872437	15027.539063	4473.673828	24.326969
583.720398	1128.658325	14925.140625	4412.234863	23.800100
584.062012	1060.392700	14520.098633	4457.745117	25.240911
584.403442	1044.463989	14622.497070	4546.490723	25.791857
584.744934	1117.280762	14640.701172	4416.785645	24.398451
585.086365	1085.423462	14488.241211	4478.225098	25.314095
585.427734	1135.484863	14845.498047	4485.051270	24.431532
585.768982	1135.484863	14590.639648	4332.591797	23.761206
586.110291	1149.138062	14440.455078	4330.315918	23.934254
586.451599	1167.342163	14160.566406	4353.071289	24.518387
586.792725	1108.178589	14638.425781	4473.673828	24.873863
587.133850	1142.311401	14456.383789	4464.571777	24.952999
587.474915	1105.903076	14392.668945	4460.020996	25.244051
587.815979	1162.791138	14583.812500	4539.664063	25.161074
588.157043	1137.760376	14419.975586	4562.419434	25.783796
588.497925	1124.107300	14558.782227	4528.286621	25.338755
588.838867	1135.484863	14567.883789	4526.010742	25.241404
589.179749	1028.535400	14884.181641	4644.337891	26.096237
589.520569	1174.168701	14668.006836	4610.205078	25.463745
589.861450	1055.841675	15025.263672	4753.562988	26.470108
590.202087	1074.045776	15016.162109	4689.848145	25.934385
590.542847	1110.454102	14879.630859	4671.644043	25.863493
590.883484	1053.566162	15118.560547	4653.439941	25.594563
591.224121	1128.658325	15070.774414	4801.349121	26.342421
591.564636	1140.035889	14982.029297	4739.909668	26.006903
591.905151	1128.658325	14870.528320	4719.430176	26.130156
592.245667	1128.658325	14886.457031	4703.501465	25.984121
592.585999	1142.311401	14731.721680	4614.756348	25.552580
592.926453	1085.423462	14572.435547	4617.031738	26.185255
593.266724	1112.729614	14768.129883	4541.939453	25.112482
593.607056	1135.484863	14495.067383	4687.572754	26.588316
593.947388	1130.933838	14636.149414	4619.307129	25.829823
594.287476	1160.515625	14690.762695	4530.562012	24.907501
594.627686	1142.311401	14820.466797	4733.083496	26.251873
594.967773	1201.474976	15230.060547	4708.052734	24.995945
595.307861	1112.729614	15302.876953	4739.909668	25.561258
595.647888	1128.658325	14977.477539	4815.001953	26.618469
595.987854	1085.423462	15439.408203	4833.206055	26.109703
596.327820	1128.658325	15582.766602	4958.359863	26.495592
596.667725	1101.352051	16076.554688	4958.359863	25.755962
597.007568	1142.311401	16638.607422	5110.819824	25.609400
597.347351	1146.862427	16995.865234	5183.636230	25.470207
597.687073	1069.494751	17357.671875	5365.678223	26.376087
598.026794	1067.219238	17284.855469	5292.861328	26.055843
598.366455	1149.138062	16879.812500	5317.892090	26.500795
598.706116	1121.831787	16597.648438	5188.187500	26.275549
599.045654	1117.280762	16072.003906	5108.544434	26.688986
599.385193	1112.729614	15373.418945	4892.369629	26.503908
599.724731	1137.760376	15220.958984	4764.940430	25.755373
600.064087	1146.862427	14663.456055	4733.083496	26.531990
600.403564	1124.107300	14344.882813	4657.991211	26.729776
600.742920	1126.382813	14297.097656	4621.582520	26.537661
601.082153	1128.658325	13801.033203	4628.409180	27.617167
601.421387	1087.698975	14024.035156	4460.020996	26.068604
601.760620	1151.413574	14096.851563	4309.836426	24.397961
602.099854	1158.240112	14137.810547	4541.939453	26.069424
602.438843	1142.311401	13700.911133	4389.479492	25.856131
602.778015	1115.005249	14008.106445	4339.417969	25.008820
603.117065	1133.209351	14506.445313	4571.521484	25.710396
603.456055	1160.515625	14658.905273	4687.572754	26.129465
603.794983	1055.841675	15182.274414	4717.154785	25.918171
604.133850	1115.005249	15739.777344	4951.533203	26.233078
604.472778	1110.454102	16188.054688	5133.574707	26.682764
604.811584	1105.903076	16713.701172	5074.411621	25.426447
605.150330	1112.729614	17410.009766	5333.820801	25.900587
605.489075	1128.658325	17257.548828	5402.086426	26.495487
605.827698	1128.658325	17321.263672	5347.474121	26.053967
606.166382	1071.770264	17027.722656	5490.831543	27.695379
606.504883	1165.066650	16841.128906	5192.738281	25.693132
606.843445	1135.484863	16194.881836	5047.104980	25.974613
607.181946	1103.627563	15719.297852	4960.635254	26.389538
607.520386	1158.240112	15391.623047	4837.757324	25.851318
607.858826	1108.178589	14891.007813	4708.052734	26.118542
608.197083	1194.648438	14595.190430	4726.256836	26.354221
608.535461	1121.831787	14401.771484	4644.337891	26.525017
608.873718	1074.045776	14174.218750	4546.490723	26.506863
609.211914	1096.801025	14356.260742	4569.245605	26.188431
609.550171	1078.596802	14909.211914	4685.297363	26.077660
609.888245	1119.556274	15207.305664	4787.695801	26.037798
610.226318	1160.515625	15566.837891	4785.420410	25.161903
610.564392	1076.321289	15755.706055	4849.134766	25.701441
610.902344	1051.290649	15500.847656	4739.909668	25.527559
611.240295	1076.321289	15268.744141	4887.818848	26.855862
611.578247	1115.005249	15082.152344	4594.276367	24.910391
611.916138	1069.494751	14825.017578	4544.214844	25.260548
612.253845	1133.209351	14099.126953	4437.265625	25.482624
612.591675	1140.035889	13907.983398	4576.072266	26.911423
612.929382	1067.219238	13787.380859	4371.275391	25.974953
613.267090	1083.147949	13373.235352	4305.285156	26.217365
613.604736	1135.484863	13311.796875	4237.019531	25.471872
613.942261	1099.076538	13307.246094	4034.498291	24.044733
614.279785	1178.719727	13109.275391	4123.243652	24.680527
614.617310	1133.209351	12690.579102	4041.324951	25.162436
614.954712	1149.138062	12440.272461	4011.743164	25.352678
615.292175	1183.270874	12485.782227	4091.386475	25.729818
615.629517	1178.719727	12317.394531	3904.793701	24.473953
615.966797	1124.107300	12260.505859	3948.028564	25.357582
616.304138	1142.311401	12244.577148	3988.988037	25.640503
616.641296	1142.311401	12346.975586	3979.885986	25.324942
616.978516	1171.893188	12112.597656	3818.323975	24.188852
617.315552	1039.912964	12267.333008	3882.038574	25.314146
617.652771	1092.250000	12399.312500	3893.416016	24.773596
617.989685	1080.872437	12340.149414	3902.518066	25.060627
618.326721	1155.964600	12331.046875	3934.375488	24.862555
618.663696	1101.352051	12613.211914	3872.936523	24.075907
619.000549	1128.658325	12415.241211	3854.732178	24.153225
619.337463	1119.556274	12544.946289	3788.742188	23.361881
619.674194	1128.658325	12397.037109	3850.181152	24.151859
620.010986	1121.831787	12101.219727	3897.967041	25.284973
620.347778	1094.525513	11846.361328	3841.079102	25.544973
620.684387	1092.250000	12060.259766	3829.701416	24.958506
621.020996	1199.199463	12071.637695	3770.538086	23.650064
621.357605	1158.240112	11948.759766	3729.578613	23.829607
621.694214	1064.943726	11928.280273	3825.150391	25.408459
622.030579	1144.586914	11896.422852	3786.466553	24.571428
622.367065	1133.209351	11844.085938	3695.445801	23.921816
622.703430	1155.964600	11857.739258	3738.680664	24.133532
623.039795	1110.454102	11646.115234	3750.058350	25.053997
623.376160	1087.698975	11618.809570	3604.425049	23.898012
623.712402	1085.423462	11737.136719	3604.425049	23.648792
624.048645	1121.831787	11664.319336	3736.405273	24.800348
624.384766	1080.872437	11575.574219	3608.976074	24.089331
624.720886	1171.893188	11730.309570	3686.343750	23.814659
625.057007	1117.280762	11432.216797	3540.710449	23.494375
625.392944	1137.760376	11673.421875	3577.118652	23.153349
625.729004	1076.321289	11611.982422	3640.833252	24.341253
626.064941	1101.352051	11980.617188	3649.935303	23.426060
626.400818	1069.494751	12299.189453	3791.017578	24.235058
626.736633	1140.035889	12301.465820	3731.854004	23.221201
627.072449	1128.658325	12635.966797	3797.844238	23.195572
627.408264	1085.423462	12510.813477	3868.385254	24.357698
627.743896	1069.494751	12706.507813	3907.069336	24.384048
628.079590	1083.147949	12642.793945	3763.711426	23.188974
628.415161	1080.872437	12736.089844	3804.670898	23.369776
628.750793	1105.903076	12544.946289	3761.435791	23.214640
629.086365	1115.005249	12246.852539	3761.435791	23.773508
629.421753	1087.698975	12412.965820	3699.996826	23.066105
629.757263	1094.525513	12037.504883	3622.629150	23.102516
630.092651	1101.352051	11951.035156	3686.343750	23.825502
630.427917	1096.801025	11750.789063	3545.261475	22.981632
630.763184	1124.107300	11388.981445	3552.087891	23.653290
631.098511	1215.128052	11350.297852	3565.741211	23.192638
631.433716	1128.658325	11125.021484	3499.750977	23.719553
631.768799	1074.045776	10861.060547	3470.169189	24.482681
632.103943	1117.280762	10904.295898	3388.250488	23.203905
632.438965	1176.444214	10972.561523	3338.188965	22.067362
632.773987	1176.444214	10922.500000	3340.464600	22.204065
633.109070	1206.026001	10735.907227	3317.709229	22.158546
633.443848	1092.250000	10849.683594	3479.271240	24.463617
633.778870	1135.484863	10669.916992	3294.954102	22.649166
634.113708	1149.138062	10619.855469	3319.984863	22.921671
634.448425	1167.342163	10599.375977	3260.821289	22.195414
634.783264	1128.658325	10908.846680	3329.086914	22.498838
635.117859	1146.862427	10724.529297	3313.158203	22.618200
635.452576	1108.178589	10904.295898	3317.709229	22.555168
635.787170	1083.147949	10902.020508	3338.188965	22.966393
636.121704	1069.494751	10405.957031	3233.515137	23.178165
636.456177	1135.484863	10299.006836	3251.719238	23.094116
636.790588	1140.035889	10005.464844	3142.494141	22.587269
637.125122	1089.974487	10314.935547	3192.555664	22.792303
637.459412	1169.617676	10089.659180	3156.147461	22.270411
637.793762	1140.035889	9893.964844	3162.973877	23.108915
638.128052	1089.974487	9818.872070	3044.646729	22.393118
638.462280	1133.209351	9843.903320	3083.330566	22.387667
638.796509	1149.138062	9727.851563	3142.494141	23.236071
639.130615	1112.729614	9554.912109	3126.565674	23.854448
639.464722	1130.933838	9573.116211	2914.942139	21.132074
639.798767	1124.107300	9550.360352	3040.095703	22.738321
640.132751	1174.168701	9322.808594	2944.523926	21.725777
640.466736	1110.454102	9381.972656	2994.585449	22.778542
640.800598	1124.107300	9554.912109	2917.217773	21.268557
641.134521	1176.444214	9115.736328	2965.003662	22.527946
641.468262	1085.423462	9193.104492	2869.431641	22.003925
641.802063	1074.045776	9081.603516	2935.421875	23.245241
642.135803	1149.138062	8908.664063	2819.370361	21.524927
642.469421	1112.729614	9115.736328	2839.849854	21.580893
642.803101	1155.964600	9017.888672	2883.084961	21.968164
643.136658	1162.791138	8863.153320	2835.298828	21.719856
643.470215	1140.035889	8920.041992	2785.237549	21.146536
643.803711	1128.658325	8872.255859	2839.849854	22.098146
644.137085	1128.658325	8958.725586	2814.819336	21.534437
644.470581	1140.035889	8635.601563	2867.156250	23.041895
644.803833	1135.484863	8706.142578	2823.921387	22.302376
645.137207	1121.831787	8915.490234	2751.104736	20.905111
645.470459	1151.413574	8612.846680	2689.665527	20.616039
645.803589	1169.617676	8667.458984	2751.104736	21.092566
646.136780	1174.168701	8731.172852	2703.318604	20.234869
646.469849	1151.413574	8831.295898	2778.410889	21.185186
646.802979	1126.382813	8712.968750	2862.605225	22.885426
647.135986	1126.382813	8619.672852	2712.420898	21.166111
647.468994	1155.964600	8940.521484	2757.931152	20.578777
647.801941	1126.382813	8858.602539	2680.563477	20.100058
648.134766	1108.178589	8967.827148	2814.819336	21.713959
648.467651	1158.240112	8817.643555	2810.268311	21.568628
648.800354	1153.689087	8947.347656	2751.104736	20.496351
649.133179	1180.995239	8778.958984	2694.216553	19.916143
649.465881	1128.658325	8813.091797	2726.073975	20.787682
649.798462	1089.974487	8920.041992	2705.594238	20.633535
650.131104	1119.556274	8833.571289	2760.206787	21.268438
650.463623	1103.627563	8765.305664	2801.166016	22.156221
650.796143	1133.209351	8833.571289	2671.461426	19.976360
651.128662	1089.974487	8765.305664	2655.532715	20.397272
651.461060	1108.178589	8738.000000	2621.399902	19.832985
651.793396	1112.729614	8904.113281	2698.767578	20.356306
652.125732	1105.903076	8744.826172	2823.921387	22.490322
652.458008	1085.423462	8788.061523	2707.869873	21.063517
652.790222	1201.474976	8983.755859	2621.399902	18.245615
653.122437	1119.556274	8633.326172	2721.522949	21.320412
653.454529	1117.280762	8608.294922	2714.696289	21.324423
653.786621	1103.627563	8562.785156	2705.594238	21.476509
654.118713	1117.280762	8626.499023	2748.829102	21.727272
654.450623	1144.586914	8512.723633	2703.318604	21.155031
654.782654	1146.862427	8437.630859	2521.277100	18.851437
655.114502	1115.005249	8508.171875	2589.542725	19.944599
655.446350	1146.862427	8410.325195	2630.501953	20.426064
655.778198	1112.729614	8526.375977	2591.818115	19.950891
656.109863	1130.933838	8285.170898	2530.379150	19.561069
656.441650	1060.392700	8405.773438	2575.889648	20.631973
656.773254	1124.107300	8155.466797	2528.103516	19.967636
657.104919	1133.209351	8212.354492	2521.277100	19.607845
657.436462	1105.903076	8144.088867	2507.624023	19.915941
657.767944	1078.596802	8487.692383	2468.940186	18.765358
658.099548	1078.596802	8626.499023	2573.614014	19.807056
658.430908	1135.484863	8428.529297	2589.542725	19.937597
658.762268	1064.943726	8740.275391	2678.288086	21.019865
659.093628	1137.760376	8701.591797	2721.522949	20.938629
659.424927	1096.801025	9143.042969	2689.665527	19.796377
659.756226	1126.382813	9682.340820	2826.196777	19.867022
660.087341	1112.729614	9721.024414	2798.890625	19.587631
660.418518	1176.444214	9889.413086	2844.401123	19.143383
660.749573	1105.903076	9791.566406	2826.196777	19.806129
661.080627	1165.066650	9641.381836	2735.176025	18.523489
661.411621	1060.392700	9509.401367	2792.063965	20.495556
661.742554	1051.290649	9529.880859	2753.380127	20.075148
662.073547	1160.515625	9179.451172	2723.798340	19.494890
662.404297	1101.352051	9006.511719	2685.114502	20.034540
662.735229	1142.311401	8728.897461	2607.746826	19.316137
663.065979	1067.219238	8612.846680	2612.297852	20.476477
663.396667	1160.515625	8505.896484	2555.409912	18.990088
663.727417	1128.658325	8346.610352	2516.726074	19.230770
664.057922	1151.413574	8134.986816	2598.644775	20.723362
664.388611	1155.964600	8107.680664	2439.358398	18.461540
664.719116	1183.270874	7941.567383	2534.930176	20.000000
665.049622	1146.862427	7805.036133	2389.296875	18.660288
665.380005	1094.525513	7734.495117	2416.603027	19.910896
665.710388	1133.209351	7741.321777	2377.919189	18.836088
666.040771	1153.689087	7780.005859	2296.000488	17.239010
666.371033	1119.556274	7836.893555	2405.225586	19.139566
666.701294	1140.035889	7663.954102	2409.776611	19.462856
667.031555	1115.005249	7707.188965	2375.643799	19.123232
667.361633	1180.995239	7695.811523	2366.541748	18.197697
667.691772	1101.352051	7613.892578	2387.021240	19.741438
668.021790	1160.515625	7704.913574	2321.031250	17.732962
668.351807	1108.178589	7627.545898	2468.940186	20.872602
668.681763	1105.903076	7577.484375	2418.878662	20.288328
669.011719	1083.147949	7725.393066	2359.715088	19.218910
669.341614	1089.974487	7629.821289	2448.460449	20.772444
669.671387	1142.311401	7622.994629	2377.919189	19.066011
670.001221	1060.392700	7766.352539	2446.184814	20.665081
670.330933	1133.209351	7780.005859	2493.970703	20.472439
670.660583	1055.841675	7907.434570	2391.572266	19.495184
670.990173	1119.556274	7711.740234	2389.296875	19.261303
671.319763	1105.903076	7588.861816	2357.439453	19.305017
671.649292	1162.791138	7597.963867	2273.245361	17.256012
671.978821	1146.862427	7295.319824	2346.062012	19.504072
672.308289	1124.107300	7415.922363	2375.643799	19.891502
672.637695	1149.138062	7370.412109	2341.510986	19.166058
672.966980	1185.546387	7261.187012	2389.296875	19.812733
673.296326	1206.026001	7224.778320	2343.786377	18.903591
673.625610	1140.035889	7329.452637	2214.081787	17.352942
673.954773	1155.964600	7347.656738	2311.929199	18.669607
674.283936	1115.005249	7106.451660	2259.592041	19.103682
674.613037	1069.494751	7286.217773	2341.510986	20.461201
674.942078	1162.791138	7186.094727	2302.827148	18.927088
675.271118	1158.240112	7154.237305	2316.480225	19.316889
675.600098	1130.933838	7085.971680	2273.245361	19.182270
675.928955	1096.801025	7161.063965	2302.827148	19.887432
676.257813	1108.178589	6963.093750	2273.245361	19.898952
676.586670	1049.015137	6974.471191	2170.846924	18.932413
676.915466	1126.382813	6965.369141	2314.204590	20.342945
677.244141	1126.382813	6985.848633	2261.867676	19.378641
677.572876	1151.413574	6833.389160	2241.387939	19.183018
677.901489	1121.831787	6676.377930	2291.449463	21.056946
678.230042	1051.290649	6988.124512	2286.898438	20.812571
678.558594	1140.035889	7017.706055	2236.836914	18.660473
678.887085	1210.577026	6967.644531	2257.316650	18.181820
679.215515	1092.250000	6953.991699	2277.796387	20.225155
679.543945	1155.964600	7076.869629	2332.408936	19.869331
679.872253	1142.311401	7288.493164	2286.898438	18.622734
680.200562	1112.729614	7347.656738	2289.173828	18.868612
680.528809	1128.658325	7538.800293	2350.613037	19.062834
680.856995	1137.760376	7511.494141	2346.062012	18.957516
681.185120	1092.250000	7597.963867	2346.062012	19.272474
681.513306	1115.005249	7657.127441	2361.990479	19.060867
681.841309	1069.494751	7757.250488	2402.949951	19.938755
682.169373	1085.423462	7845.995605	2339.235352	18.545942
682.497314	1112.729614	7725.393066	2432.531738	19.958706
682.825134	1124.107300	7434.126465	2380.194824	19.906240
683.153076	1126.382813	7620.719238	2384.745850	19.376314
683.480896	1099.076538	7406.820313	2350.613037	19.841270
683.808655	1051.290649	7409.095703	2311.929199	19.828203
684.136414	1140.035889	7306.697266	2277.796387	18.450188
684.464050	1046.739624	7254.360352	2341.510986	20.857773
684.791626	1112.729614	7097.349609	2321.031250	20.190115
685.119263	1105.903076	6837.939941	2296.000488	20.762207
685.446838	1121.831787	6853.868652	2184.500000	18.539103
685.774292	1196.923950	6553.500000	2166.295898	18.096857
686.101685	1124.107300	6599.010254	2159.469238	18.911057
686.429077	1155.964600	6614.938965	2173.122314	18.632761
686.756348	1124.107300	6539.846680	2195.877686	19.789919
687.083679	1094.525513	6492.061035	2182.224365	20.151768
687.410950	1078.596802	6635.418457	2143.540527	19.164619
687.738159	1190.097412	6655.898438	2157.193604	17.693586
688.065308	1085.423462	6589.908203	2170.846924	19.718893
688.392395	1044.463989	6783.327637	2095.754639	18.318794
688.719421	1042.188477	6676.377930	2141.265137	19.507273
689.046448	1190.097412	6837.939941	2239.112549	18.573730
689.373413	1133.209351	6767.398926	2075.274902	16.720516
689.700317	1149.138062	6639.969727	2143.540527	18.110235
690.027100	1137.760376	6662.725098	2132.163086	17.998354
690.353943	1133.209351	6626.316406	2100.305664	17.605635
690.680725	1183.270874	6403.315430	2211.806152	19.703573
691.007446	1055.841675	6378.284668	2088.927979	19.410002
691.334106	1096.801025	6353.253906	2079.825928	18.701298
691.660645	1162.791138	6146.181641	2125.336426	19.315067
691.987244	1117.280762	6077.916016	2113.958740	20.091742
692.313721	1124.107300	5984.619629	1986.529663	17.743446
692.640259	1144.586914	6109.773438	2009.284912	17.415216
692.966675	1103.627563	6023.303711	2050.244141	19.241440
693.293030	1092.250000	5838.986328	1993.356201	18.983700
693.619324	1130.933838	5989.170898	1968.325439	17.236532
693.945618	1103.627563	5829.884277	2025.213501	19.499277
694.271851	1101.352051	5709.281738	2057.070801	20.740740
694.598083	1171.893188	5757.067871	2032.040039	18.759304
694.924194	1115.005249	5920.905273	1922.815063	16.808710
695.250244	1115.005249	5679.699707	1975.152100	18.843472
695.576294	1121.831787	5752.516602	1938.743774	17.641279
695.902283	1174.168701	5713.832520	1984.254150	17.844612
696.228210	1049.015137	5864.017090	2029.764526	20.368618
696.554138	1144.586914	5784.374023	2009.284912	18.636587
696.879944	1130.933838	5727.485840	1995.631714	18.811882
697.205750	1169.617676	5707.006348	2011.560425	18.555668
697.531433	1183.270874	5889.047852	1997.907227	17.311411
697.857178	1126.382813	5882.221191	2002.458252	18.421051
698.182739	1137.760376	6068.813965	2011.560425	17.720352
698.508423	1126.382813	6360.080566	2077.550537	18.173914
698.833984	1171.893188	6328.223145	2166.295898	19.285086
699.159485	1115.005249	6726.439453	2184.500000	19.059206
699.484924	1149.138062	7045.012207	2157.193604	17.097643
699.810303	1158.240112	7060.940918	2223.183838	18.041636
700.135681	1174.168701	7302.146484	2261.867676	17.749722
700.460999	1135.484863	7447.779785	2268.694336	17.952417
700.786255	1151.413574	7065.492188	2291.449463	19.276644
701.111450	1137.760376	6869.797363	2193.602051	18.420008
701.436646	1101.352051	6735.541504	2225.459229	19.951532
701.761719	1108.178589	6539.846680	2088.927979	18.056137
702.086792	1121.831787	6385.111328	2129.887451	19.152617
702.411865	1094.525513	6084.742676	2136.714111	20.884634
702.736816	1085.423462	5848.088379	2009.284912	19.397993
703.061646	1083.147949	5788.924805	2011.560425	19.729208
703.386536	1112.729614	5743.414551	1984.254150	18.820639
703.711365	1099.076538	5458.974609	1993.356201	20.511482
704.036194	1133.209351	5420.290527	1906.886475	18.046711
704.360901	1094.525513	5324.718750	1902.335449	19.096289
704.685547	1044.463989	5377.055664	1968.325439	21.323528
705.010132	1167.342163	5235.973145	1970.601074	19.742733
705.334717	1119.556274	5179.085449	1952.396851	20.515694
705.659302	1103.627563	5135.850586	1922.815063	20.316027
705.983765	1078.596802	5110.819824	1954.672363	21.726862
706.308228	1171.893188	5076.687012	1888.682251	18.356642
706.632568	1076.321289	5110.819824	1820.416626	18.443317
706.956909	1201.474976	4906.022949	1843.171875	17.321869
707.281189	1119.556274	4946.982422	1890.957764	20.154575
707.605408	1144.586914	5222.320313	1799.937012	16.071430
707.929626	1140.035889	5049.380859	1927.366089	20.139696
708.253784	1140.035889	5038.002930	1847.722900	18.155285
708.577820	1192.372925	5028.900879	1943.294800	19.572956
708.901855	1080.872437	4987.941406	1829.518677	19.161327
709.225830	1162.791138	5035.727539	1890.957764	18.801409
709.549805	1124.107300	5142.677246	1863.651489	18.403170
709.873718	1128.658325	4967.461914	1900.059814	20.094841
710.197510	1128.658325	5090.339844	1863.651489	18.552555
710.521362	1171.893188	5181.360840	1970.601074	19.920546
710.845093	1062.668213	5229.146973	1854.549438	19.006008
711.168701	1142.311401	5217.769043	1945.570313	19.709661
711.492432	1212.852539	5254.177734	1911.437500	17.286037
711.816040	1126.382813	5468.076660	1968.325439	19.392031
712.139587	1105.903076	5468.076660	1895.508789	18.101198
712.463074	1117.280762	5452.147949	2004.733887	20.472441
712.786499	1137.760376	5454.423340	1902.335449	17.712179
713.109924	1137.760376	5311.065430	1927.366089	18.920393
713.433350	1158.240112	5367.953613	1897.784302	17.567566
713.756592	1087.698975	5388.433105	1834.069824	17.354498
714.079834	1062.668213	5290.585938	1956.947876	21.151773
714.403015	1055.841675	5249.626465	1847.722900	18.882257
714.726196	1094.525513	5292.861328	1927.366089	19.837397
715.049255	1083.147949	5190.462891	1895.508789	19.778391
715.372375	1105.903076	5081.237793	1959.223389	21.465370
715.695435	1133.209351	5108.544434	1815.865601	17.172295
716.018311	1092.250000	5076.687012	1768.079712	16.961737
716.341248	1099.076538	5022.074219	1881.855713	19.953598
716.664063	1119.556274	5092.615723	1915.988525	20.045816
716.987000	1146.862427	5158.605469	1861.375977	17.810551
717.309692	1149.138062	5060.758301	1895.508789	19.080860
717.632385	1117.280762	4915.125000	1895.508789	20.491310
717.955078	1108.178589	4944.706543	1915.988525	21.055756
718.277649	1174.168701	4926.502441	1827.243164	17.404488
718.600220	1049.015137	4855.961426	1847.722900	20.980274
718.922791	1115.005249	4787.695801	1806.763550	18.835192
719.245300	1165.066650	4767.216309	1884.131226	19.962095
719.567688	1092.250000	4576.072266	1790.834839	20.052252
719.890015	1087.698975	4630.685059	1743.048950	18.497108
720.212341	1140.035889	4569.245605	1790.834839	18.978104
720.534607	1178.719727	4487.327148	1706.640625	15.955985
720.856873	1117.280762	4439.541016	1765.804199	19.520550
721.179016	1167.342163	4421.336914	1777.181763	18.741261
721.501160	1076.321289	4318.938477	1802.212524	22.385967
721.823242	1135.484863	4273.428223	1747.599976	19.506889
722.145264	1146.862427	4246.121582	1729.395752	18.795889
722.467224	1162.791138	4205.162598	1786.283813	20.493639
722.789185	1149.138062	4241.570801	1727.120239	18.690210
723.111023	1140.035889	4186.958496	1756.702026	20.238983
723.432861	1137.760376	4134.621094	1711.191650	19.134398
723.754578	1151.413574	4243.846191	1702.089600	17.807211
724.076294	1119.556274	4280.254395	1736.222412	19.510441
724.397949	1078.596802	4241.570801	1656.579102	18.273380
724.719666	1174.168701	4095.937500	1795.385864	21.261681
725.041260	1119.556274	4120.968262	1738.497925	20.621681
725.362732	1055.841675	4086.835449	1677.058838	20.495495
725.684265	1130.933838	4227.917480	1711.191650	18.736225
726.005676	1149.138062	4091.386475	1727.120239	19.644234
726.327087	1092.250000	4089.110840	1702.089600	20.349279
726.648438	1069.494751	4102.764160	1799.937012	24.081020
726.969666	1117.280762	4091.386475	1688.436401	19.204281
727.290894	1119.556274	4091.386475	1779.457275	22.205206
727.612061	1194.648438	4111.866211	1713.467163	17.784710
727.933228	1137.760376	4145.999023	1788.559326	21.633886
728.254395	1119.556274	4287.081055	1740.773438	19.612068
728.575378	1124.107300	4280.254395	1738.497925	19.466476
728.896301	1192.372925	4380.377441	1781.732788	18.486795
729.217285	1180.995239	4391.755371	1779.457275	18.639263
729.538147	1146.862427	4355.346680	1822.692139	21.063831
729.858948	1155.964600	4430.438965	1797.661377	19.596939
730.179810	1151.413574	4407.683594	1875.029175	22.222223
730.500549	1153.689087	4225.642090	1804.488037	21.185184
730.821228	1117.280762	4305.285156	1763.528564	20.271233
731.141846	1176.444214	4371.275391	1743.048950	17.735044
731.462402	1137.760376	4425.888184	1754.426514	18.754324
731.782898	1096.801025	4532.837402	1797.661377	20.397350
732.103455	1158.240112	4430.438965	1784.008301	19.123783
732.423889	1105.903076	4412.234863	1761.253052	19.821058
732.744263	1096.801025	4473.673828	1781.732788	20.283020
733.064636	1140.035889	4334.867188	1820.416626	21.296297
733.384888	1128.658325	4403.132813	1813.590088	20.917303
733.705200	1117.280762	4337.142578	1772.630737	20.353357
734.025330	1096.801025	4478.225098	1820.416626	21.399729
734.345520	1167.342163	4396.306152	1779.457275	18.957014
734.665527	1089.974487	4428.163574	1795.385864	21.131559
734.985596	1085.423462	4296.183105	1770.355225	21.332390
735.305542	1133.209351	4205.162598	1729.395752	19.407406
735.625549	1103.627563	4271.152344	1784.008301	21.479885
735.945435	1105.903076	4293.907715	1747.599976	20.128481
736.265259	1190.097412	4123.243652	1845.447388	22.342901
736.585083	1135.484863	4066.355713	1818.141113	23.291925
736.904785	1112.729614	3982.161377	1704.365112	20.618561
737.224426	1112.729614	4061.804688	1722.569214	20.679012
737.544128	1135.484863	4025.396240	1777.181763	22.204725
737.863708	1153.689087	3907.069336	1793.110352	23.223135
738.183289	1121.831787	4023.120850	1715.742676	20.470587
738.502808	1094.525513	4016.294189	1731.671387	21.806856
738.822205	1074.045776	3959.406250	1713.467163	22.160885
739.141541	1142.311401	4029.947266	1740.773438	20.724983
739.460938	1112.729614	4027.671875	1781.732788	22.950819
739.780212	1142.311401	4066.355713	1815.865601	23.035019
740.099426	1128.658325	4277.979004	1740.773438	19.436417
740.418640	1026.259888	4020.845215	1733.946899	23.632219
740.737793	1078.596802	4086.835449	1788.559326	23.600605
741.056885	1130.933838	4123.243652	1820.416626	23.041824
741.375977	1105.903076	4100.488281	1831.794189	24.240122
741.694946	1060.392700	4039.049316	1822.692139	25.592054
742.013855	1140.035889	4080.008789	1720.293701	19.736843
742.332703	1146.862427	3922.997803	1861.375977	25.737707
742.651550	1119.556274	3909.344727	1786.283813	23.898855
742.970398	1162.791138	3913.895752	1736.222412	20.843676
743.289124	1117.280762	3831.977051	1681.609863	20.787928
743.607788	1108.178589	3825.150391	1670.232300	20.686771
743.926453	1119.556274	3802.395264	1624.721802	18.829514
744.245056	1128.658325	3777.364502	1679.334351	20.790379
744.563599	1144.586914	3884.313965	1743.048950	21.843857
744.882141	1108.178589	3715.925537	1681.609863	21.989529
745.200500	1108.178589	3820.599365	1631.548462	19.295305
745.518860	1137.760376	3690.894775	1661.130127	20.499107
745.837219	1110.454102	3747.782715	1679.334351	21.570320
746.155518	1094.525513	3608.976074	1674.783325	23.076921
746.473755	1137.760376	3483.822266	1720.293701	24.830261
746.791992	1110.454102	3643.108887	1658.854614	21.653189
747.110107	1076.321289	3645.384277	1631.548462	21.612049
747.428162	1069.494751	3570.292236	1611.068726	21.656052
747.746216	1183.270874	3517.955078	1729.395752	23.391811
748.064148	1183.270874	3520.230713	1624.721802	18.889965
748.382080	1142.311401	3606.700439	1640.650513	20.221607
748.700073	1178.719727	3581.669678	1615.619751	18.181820
749.017822	1110.454102	3442.863037	1670.232300	24.000002
749.335632	1174.168701	3581.669678	1674.783325	20.793953
749.653320	1137.760376	3595.322754	1752.151001	25.000000
749.971008	1112.729614	3549.812500	1724.844727	25.116713
750.288696	1080.872437	3718.200928	1681.609863	22.778255
750.606262	1042.188477	3620.353516	1711.191650	25.948811
750.923828	1101.352051	3643.108887	1713.467163	24.082363
751.241272	1119.556274	3636.282227	1592.864502	18.806505
751.558716	1094.525513	3529.332764	1677.058838	23.925236
751.876038	1028.535400	3636.282227	1649.752563	23.821989
752.193481	1089.974487	3561.189941	1697.538574	24.585640
752.510681	1108.178589	3399.628174	1681.609863	25.024824
752.827942	1064.943726	3442.863037	1631.548462	23.827751
753.145081	1108.178589	3527.057129	1683.885376	23.800568
753.462219	1074.045776	3497.475586	1738.497925	27.417843
753.779297	1146.862427	3513.404053	1720.293701	24.230772
754.096375	1185.546387	3504.302002	1658.854614	20.412165
754.413330	1158.240112	3542.985840	1733.946899	24.141224
754.730286	1144.586914	3568.016602	1672.507813	21.784040
755.047119	1108.178589	3490.648926	1738.497925	26.456547
755.363892	1165.066650	3508.853027	1617.895264	19.320387
755.680725	1105.903076	3524.781738	1718.018188	25.305738
755.997498	1160.515625	3433.760986	1692.987427	23.423420
756.314148	1167.342163	3479.271240	1652.028076	20.964565
756.630737	1140.035889	3490.648926	1736.222412	25.363024
756.947327	1119.556274	3395.077148	1736.222412	27.099998
757.263855	1117.280762	3385.974854	1699.814087	25.677032
757.580261	1119.556274	3422.383301	1640.650513	22.628456
757.896729	1089.974487	3370.046387	1636.099487	23.952097
758.213074	1133.209351	3515.679688	1677.058838	22.827126
758.529419	1105.903076	3467.893799	1772.630737	28.227362
758.845642	1092.250000	3431.485352	1672.507813	24.805449
759.161865	1108.178589	3481.546875	1740.773438	26.653887
759.478149	1153.689087	3447.414063	1663.405762	22.222221
759.794189	1149.138062	3504.302002	1802.212524	27.729467
760.110229	1142.311401	3488.373291	1736.222412	25.315231
760.426270	1074.045776	3508.853027	1731.671387	27.009352
760.742249	1117.280762	3520.230713	1729.395752	25.473480
761.058105	1108.178589	3554.363525	1704.365112	24.372093
761.374023	1171.893188	3624.904541	1745.324463	23.376627
761.689819	1058.117188	3668.139648	1690.711914	24.237137
762.005554	1165.066650	3565.741211	1745.324463	24.170616
762.321289	1135.484863	3595.322754	1745.324463	24.791861
762.636902	1142.311401	3661.312988	1733.946899	23.486906
762.952515	1117.280762	3472.444824	1827.243164	30.144924
763.268127	1165.066650	3718.200928	1774.906250	23.885920
763.583618	1080.872437	3645.384277	1790.834839	27.684116
763.899048	1124.107300	3941.202148	1797.661377	23.909529
764.214478	1155.964600	4280.254395	1943.294800	25.200294
764.529785	1112.729614	4585.174316	2061.621826	27.326344
764.845093	1108.178589	4869.614746	2132.163086	27.223232
765.160400	1135.484863	4997.043457	2257.316650	29.051270
765.475586	1037.637451	4935.604492	2275.520752	31.757151
765.790771	1094.525513	4794.522461	2143.540527	28.351780
766.105835	1103.627563	4673.919922	2220.908203	31.293812
766.420837	1105.903076	4457.745117	2020.662476	27.291245
766.735840	1160.515625	4259.774902	1966.049927	25.991188
767.050842	1115.005249	4036.773926	1995.631714	30.140186
767.365662	1087.698975	3836.528076	1888.682251	29.139072
767.680542	1112.729614	3911.620361	1849.998413	26.341465
767.995300	1087.698975	3870.660889	1834.069824	26.819298
768.309998	1124.107300	3768.262451	1875.029175	28.399311
768.624817	1137.760376	3656.761963	1838.620850	27.822948
768.939392	1058.117188	3627.180176	1870.478149	31.620905
769.254028	1110.454102	3674.966064	1922.815063	31.677019
769.568481	1130.933838	3465.618164	1811.314575	29.142302
769.882935	1076.321289	3488.373291	1797.661377	29.905661
770.197388	1176.444214	3385.974854	1856.824951	30.792997
770.511841	1176.444214	3417.832275	1754.426514	25.786800
770.826172	1165.066650	3294.954102	1804.488037	30.021370
771.140442	1087.698975	3276.750000	1820.416626	33.471931
771.454651	1117.280762	3372.321777	1754.426514	28.254286
771.768860	1115.005249	3244.892578	1747.599976	29.700855
772.082886	1130.933838	3247.168213	1758.977539	29.677418
772.397034	1115.005249	3192.555664	1658.854614	26.177435
772.711060	1151.413574	3128.841064	1768.079712	31.185272
773.025024	1160.515625	3183.453613	1661.130127	24.746902
773.338928	1151.413574	3192.555664	1656.579102	24.749161
773.652771	1178.719727	3167.524902	1704.365112	26.430210
773.966614	1137.760376	3094.708252	1695.262939	28.488371
774.280457	1117.280762	3137.943115	1777.181763	32.657658
774.594116	1128.658325	3078.779541	1772.630737	33.022175
774.907776	1087.698975	3019.616211	1718.018188	32.626617
775.221375	1074.045776	3094.708252	1745.324463	33.220722
775.534912	1149.138062	2999.136475	1777.181763	33.948338
775.848450	1074.045776	3090.157227	1667.956787	29.458242
776.161926	1119.556274	3067.402100	1708.916138	30.257008
776.475342	1146.862427	2971.830078	1699.814087	30.299257
776.788696	1135.484863	3126.565674	1758.977539	31.314283
777.101990	1169.617676	2930.870850	1729.395752	31.782942
777.415283	1105.903076	2924.044189	1722.569214	33.917397
777.728516	1144.586914	2899.013428	1836.345337	39.429317
778.041626	1151.413574	2937.697266	1704.365112	30.955416
778.354736	1133.209351	2935.421875	1731.671387	33.207073
778.667725	1151.413574	3005.962891	1736.222412	31.533745
778.980774	1155.964600	2935.421875	1667.956787	28.772379
779.293640	1126.382813	2880.809326	1724.844727	34.111542
779.606567	1069.494751	2755.655762	1708.916138	37.921726
779.919434	1160.515625	2844.401123	1758.977539	35.540535
780.232239	1171.893188	2878.533936	1738.497925	33.200001
780.544983	1162.791138	2921.768799	1774.906250	34.799480
780.857666	1201.474976	3008.238525	1645.201538	24.559195
781.170227	1169.617676	2792.063965	1711.191650	33.380085
781.482849	1140.035889	2855.778564	1740.773438	35.013268
781.795410	1117.280762	2819.370361	1724.844727	35.695183
782.107910	1126.382813	2889.911377	1745.324463	35.096775
782.420288	1135.484863	2805.717041	1702.089600	33.923710
782.732666	1108.178589	2776.135498	1727.120239	37.107773
783.044983	1196.923950	2712.420898	1681.609863	31.981979
783.357300	1153.689087	2716.971924	1731.671387	36.972343
783.669495	1144.586914	2767.033203	1658.854614	31.697056
783.981689	1160.515625	2785.237549	1699.814087	33.193279
784.293762	1140.035889	2735.176025	1665.681274	32.952927
784.605835	1126.382813	2732.900391	1772.630737	40.226631
784.917908	1121.831787	2632.777588	1738.497925	40.813251
785.229858	1151.413574	2671.461426	1768.079712	40.568863
785.541748	1092.250000	2696.492188	1665.681274	35.744682
785.853577	1242.434326	2591.818115	1647.477051	30.016867
786.165405	1105.903076	2628.226563	1708.916138	39.611362
786.477173	1137.760376	2707.869873	1626.997314	31.159416
786.788879	1049.015137	2641.879639	1622.446289	35.999996
787.100525	1103.627563	2630.501953	1704.365112	39.344269
787.412109	1035.361938	2621.399902	1711.191650	42.611195
787.723694	1064.943726	2600.920166	1749.875488	44.592594
788.035156	998.953613	2605.471436	1704.365112	43.909348
788.346558	1023.984375	2610.022461	1647.477051	39.311329
788.658081	1092.250000	2632.777588	1697.538574	39.290993
788.969360	1099.076538	2653.257324	1786.283813	44.216690
789.280640	1119.556274	2773.859863	1802.212524	41.265476
789.591919	1176.444214	2769.308838	1788.559326	38.428570
789.903076	1158.240112	2848.952148	1790.834839	37.415878
790.214172	1121.831787	2924.044189	1815.865601	38.510101
790.525269	1117.280762	2798.890625	1788.559326	39.918804
790.836365	1124.107300	2744.278076	1768.079712	39.747192
791.147339	1126.382813	2728.349365	1713.467163	36.647728
791.458191	1112.729614	2737.451416	1772.630737	40.616253
791.769104	1103.627563	2657.808350	1793.110352	44.363102
792.079895	1149.138062	2703.318604	1802.212524	42.020500
792.390686	1124.107300	2569.062988	1790.834839	46.141727
792.701416	1169.617676	2541.756836	1706.640625	39.137646
793.012085	1151.413574	2487.144287	1727.120239	43.100502
793.322693	1099.076538	2591.818115	1672.507813	38.414639
793.633240	1185.546387	2544.032227	1729.395752	40.033497
793.943787	1094.525513	2448.460449	1774.906250	50.252098
794.254272	1101.352051	2607.746826	1708.916138	40.332329
794.564636	1094.525513	2471.215576	1777.181763	49.586777
794.875000	1183.270874	2462.113525	1688.436401	39.501774
795.185303	1080.872437	2484.868652	1733.946899	46.515400
795.495544	1021.708862	2496.246338	1622.446289	40.740738
795.805786	1149.138062	2430.256104	1654.303589	39.431614
796.115906	1165.066650	2475.766602	1806.763550	48.958336
796.426025	1108.178589	2491.695313	1718.018188	44.078945
796.736023	1140.035889	2525.828125	1715.742676	41.543514
797.045959	1110.454102	2562.236328	1806.763550	47.962391
797.355896	1142.311401	2598.644775	1849.998413	48.593750
797.665833	1103.627563	2660.083740	1736.222412	40.643280
797.975708	1183.270874	2562.236328	1729.395752	39.603958
798.285461	1083.147949	2641.879639	1811.314575	46.715328
798.595154	1117.280762	2610.022461	1747.599976	42.225605
798.904846	1128.658325	2423.429688	1790.834839	51.142349
799.214478	1096.801025	2473.491211	1765.804199	48.595043
799.524109	1071.770264	2571.338623	1772.630737	46.737480
799.833557	1121.831787	2587.267090	1745.324463	42.546585
800.143005	1089.974487	2462.113525	1688.436401	43.615253
800.452393	1069.494751	2412.052002	1781.732788	53.050850
800.761780	1162.791138	2384.745850	1727.120239	46.182487
801.071106	1058.117188	2405.225586	1781.732788	53.716213
801.380371	1183.270874	2346.062012	1774.906250	50.880623
801.689575	1078.596802	2368.817139	1754.426514	52.380955
801.998718	1196.923950	2414.327637	1661.130127	38.130833
802.307800	1117.280762	2407.500977	1795.385864	52.557316
802.616882	1087.698975	2437.082764	1758.977539	49.747044
802.925903	1108.178589	2405.225586	1713.467163	46.666664
803.234863	1023.984375	2409.776611	1736.222412	51.395729
803.543701	1112.729614	2336.959961	1763.528564	53.159843
803.852539	1069.494751	2425.705078	1781.732788	52.516785
804.161316	1124.107300	2359.715088	1661.130127	43.462242
804.470032	1089.974487	2380.194824	1763.528564	52.204578
804.778809	1115.005249	2280.071777	1724.844727	52.343746
805.087341	1187.821899	2289.173828	1765.804199	52.479347
805.395935	1096.801025	2257.316650	1786.283813	59.411762
805.704468	1110.454102	2311.929199	1681.609863	47.537876
806.012939	1092.250000	2348.337402	1733.946899	51.086964
806.321350	1105.903076	2311.929199	1702.089600	49.433964
806.629761	1185.546387	2418.878662	1729.395752	44.095932
806.938049	1089.974487	2325.582275	1861.375977	62.430935
807.246277	1160.515625	2368.817139	1695.262939	44.256115
807.554504	1039.912964	2302.827148	1772.630737	58.018017
807.862671	1171.893188	2296.000488	1763.528564	52.631577
808.170715	1194.648438	2357.439453	1715.742676	44.814091
808.478821	1176.444214	2418.878662	1770.355225	47.802200
808.786804	1210.577026	2236.836914	1877.304688	64.966743
809.094727	1128.658325	2286.898438	1706.640625	49.901768
809.402649	1146.862427	2298.276123	1731.671387	50.790516
809.710510	1133.209351	2239.112549	1740.773438	54.938271
810.018311	1253.812012	2230.010498	1736.222412	49.417244
810.326050	1153.689087	2211.806152	1674.783325	49.247314
810.633667	1137.760376	2293.724854	1695.262939	48.228348
810.941345	1087.698975	2193.602051	1758.977539	60.699585
811.248901	1149.138062	2257.316650	1745.324463	53.798767
811.556396	1153.689087	2179.948975	1697.538574	52.993351
811.863892	1103.627563	2216.357178	1729.395752	56.237221
812.171326	1039.912964	2273.245361	1663.405762	50.553509
812.478699	1051.290649	2161.744873	1615.619751	50.819664
812.786011	1089.974487	2152.642578	1667.956787	54.389729
813.093262	1140.035889	2125.336426	1770.355225	63.972290
813.400391	1142.311401	2011.560425	1631.548462	56.282726
813.707642	1064.943726	2164.020264	1752.151001	62.525879
814.014709	1103.627563	2150.367188	1799.937012	66.521744
814.321716	1146.862427	2136.714111	1670.232300	52.873566
814.628723	1137.760376	2239.112549	1686.160889	49.793385
814.935669	1046.739624	2141.265137	1747.599976	64.033257
815.242554	1210.577026	2118.509766	1617.895264	44.862160
815.549438	1108.178589	2225.459229	1649.752563	48.472511
815.856201	1092.250000	2104.856689	1718.018188	61.797752
816.162964	1121.831787	2091.203613	1692.987427	58.920181
816.469604	1128.658325	2207.255127	1649.752563	48.312237
816.776184	1208.301514	2109.407715	1686.160889	53.030308
817.082825	1155.964600	2159.469238	1695.262939	53.741489
817.389343	1130.933838	2182.224365	1727.120239	56.709957
817.695801	1060.392700	2159.469238	1681.609863	56.521740
818.002197	1044.463989	2173.122314	1697.538574	57.862911
818.308533	1169.617676	2186.775391	1686.160889	50.783001
818.614868	1119.556274	2214.081787	1688.436401	51.975044
818.921143	1128.658325	2216.357178	1820.416626	63.598331
819.227356	1135.484863	2195.877686	1793.110352	62.017159
819.533447	1115.005249	2207.255127	1784.008301	61.250000
819.839539	1087.698975	2245.938965	1765.804199	58.546177
820.145569	1126.382813	2291.449463	1879.580200	64.648438
820.451538	1137.760376	2341.510986	1879.580200	61.625706
820.757568	1144.586914	2421.154053	1906.886475	59.714802
821.063416	1140.035889	2566.787354	2009.284912	60.925049
821.369263	1115.005249	2678.288086	2075.274902	61.426483
821.675049	1165.066650	2819.370361	2095.754639	56.258595
821.980713	1169.617676	2842.125488	2214.081787	62.448982
822.286438	1055.841675	3067.402100	2309.653564	62.330311
822.592102	1094.525513	3269.923340	2464.388916	62.970703
822.897583	1058.117188	4002.641113	3001.411865	65.996902
823.203125	1037.637451	6116.600098	4186.958496	62.007168
823.508545	1115.005249	8312.477539	5725.210449	64.053116
823.813965	1099.076538	10292.180664	6862.970703	62.698013
824.119263	1119.556274	10968.010742	7211.125488	61.853050
824.424622	1101.352051	9909.893555	6517.091797	61.482822
824.729858	1119.556274	8426.253906	5702.455078	62.721889
825.035095	1153.689087	7331.728027	4940.155762	61.289135
825.340149	1140.035889	6259.957520	4293.907715	61.599998
825.645264	1099.076538	5433.943848	3854.732178	63.569553
825.950256	1126.382813	5003.870117	3558.914551	62.734745
826.255310	1135.484863	4612.480469	3322.260254	62.892670
826.560242	1080.872437	4148.274414	3108.361328	66.097923
826.865112	1101.352051	3929.824463	3112.912354	71.118256
827.169922	1112.729614	3806.946289	2780.686523	61.908787
827.474670	1162.791138	3690.894775	2714.696289	61.386139
827.779419	1087.698975	3866.109863	2892.187012	64.946770
828.084045	1176.444214	4257.499512	3137.943115	63.663219
828.388672	1130.933838	4771.767090	3545.261475	66.312500
828.693176	1165.066650	5215.493652	3781.915527	64.606743
828.997681	1178.719727	5192.738281	3747.782715	64.002274
829.302124	1146.862427	4774.042480	3549.812500	66.248436
829.606567	1126.382813	4041.324951	3128.841064	68.696327
829.910828	1142.311401	3647.659912	2883.084961	69.482285
830.215149	1124.107300	3463.342773	2689.665527	66.926071
830.519348	1217.403687	3160.698486	2505.348389	66.276344
830.823547	1094.525513	2885.360352	2375.643799	71.537491
831.127686	1087.698975	2844.401123	2293.724854	68.652840
831.431763	1108.178589	2687.390137	2091.203613	62.247837
831.735779	1108.178589	2544.032227	2150.367188	72.583206
832.039734	1115.005249	2509.899414	2084.376953	69.494286
832.343628	1117.280762	2400.674561	1920.539551	62.588646
832.647461	1153.689087	2282.347412	1981.978638	73.387093
832.951233	1196.923950	2350.613037	1865.927002	57.988159
833.255127	1117.280762	2255.041016	1995.631714	77.200005
833.558777	1149.138062	2311.929199	1963.774414	70.058701
833.862366	1203.750488	2291.449463	1997.907227	73.012550
834.165955	1162.791138	2423.429688	2095.754639	74.007217
834.469482	1178.719727	2785.237549	2223.183838	65.014160
834.773010	1160.515625	3112.912354	2498.521729	68.531464
835.076416	1110.454102	3465.618164	2819.370361	72.560394
835.379822	1126.382813	3697.721191	2980.932129	72.123894
835.683105	1180.995239	3620.353516	2883.084961	69.776123
835.986389	1037.637451	3502.026611	2728.349365	68.605721
836.289612	1067.219238	3228.964111	2478.042236	65.263161
836.592773	1105.903076	3042.371338	2421.154053	67.920090
836.895874	1108.178589	2801.166016	2373.368164	74.731186
837.198914	1149.138062	2612.297852	2182.224365	70.606529
837.501892	1085.423462	2528.103516	2168.571289	75.078865
837.804871	1135.484863	2332.408936	2054.795166	76.806068
838.107666	1117.280762	2227.734863	2011.560425	80.532791
838.410583	1067.219238	2259.592041	1897.784302	69.656494
838.713379	1133.209351	2154.918213	1829.518677	68.151443
839.016052	1078.596802	2038.866699	1788.559326	73.933647
839.318787	1126.382813	2032.040039	1690.711914	62.311554
839.621338	1149.138062	1950.121338	1804.488037	81.818184
839.923889	1087.698975	1913.713013	1718.018188	76.308533
840.226440	1085.423462	1938.743774	1690.711914	70.933319
840.528931	1117.280762	1988.805176	1688.436401	65.535240
840.831299	1160.515625	2002.458252	1733.946899	68.108116
841.133606	1180.995239	2082.101563	1804.488037	69.191925
841.435913	1067.219238	2209.530762	2025.213501	83.864540
841.738220	1133.209351	2216.357178	1920.539551	72.689079
842.040405	1067.219238	2259.592041	1854.549438	66.030540
842.342529	1142.311401	2041.142212	1865.927002	80.506317
842.644592	1128.658325	2036.591064	1806.763550	74.686722
842.946594	1133.209351	1909.161987	1715.742676	75.073311
843.248596	1080.872437	1895.508789	1722.569214	78.770950
843.550598	1174.168701	1884.131226	1654.303589	67.628204
843.852478	1153.689087	1829.518677	1617.895264	68.686867
844.154236	1108.178589	1890.957764	1592.864502	61.918602
844.455994	1153.689087	1829.518677	1588.313477	64.309761
844.757690	1165.066650	1754.426514	1572.384888	69.111977
845.059326	1105.903076	1770.355225	1556.456177	67.808212
845.360962	1133.209351	1781.732788	1531.425537	61.403515
845.662476	1190.097412	1608.793213	1545.078613	84.782600
845.963989	1110.454102	1747.599976	1495.017212	60.357155
846.265381	1140.035889	1677.058838	1504.119263	67.796616
846.566772	1137.760376	1642.926025	1501.843750	72.072075
846.868042	1117.280762	1665.681274	1510.945801	71.784218
847.169373	1096.801025	1615.619751	1540.527588	85.526321
847.470581	1126.382813	1581.486938	1567.833862	97.000008
847.771729	1117.280762	1706.640625	1483.639526	62.162151
848.072815	1060.392700	1690.711914	1490.466064	68.231041
848.373901	1117.280762	1640.650513	1522.323364	77.391289
848.674866	1151.413574	1624.721802	1565.558350	87.500015
848.975891	1071.770264	1588.313477	1535.976563	89.867851
849.276794	1062.668213	1586.037964	1547.354126	92.608696
849.577637	1101.352051	1670.232300	1479.088501	66.399994
849.878357	1089.974487	1633.823975	1540.527588	82.845184
850.179077	1014.882263	1586.037964	1545.078613	92.828690
850.479736	1167.342163	1547.354126	1488.190552	84.431129
850.780396	1112.729614	1581.486938	1451.782227	72.330093
851.080994	1135.484863	1601.966675	1413.098389	59.512188
851.381470	1101.352051	1626.997314	1442.680176	64.935074
851.681946	1074.045776	1615.619751	1467.710938	72.689087
851.982361	1096.801025	1636.099487	1426.751587	61.181438
852.282715	1135.484863	1579.211426	1538.252075	90.769234
852.583008	1146.862427	1565.558350	1454.057739	73.369553
852.883240	1112.729614	1622.446289	1444.955688	65.178574
853.183411	1108.178589	1579.211426	1454.057739	73.429947
853.483521	1133.209351	1556.456177	1444.955688	73.655922
853.783630	1101.352051	1642.926025	1481.364014	70.168060
854.083679	1135.484863	1656.579102	1479.088501	65.938866
854.383667	1101.352051	1490.466064	1463.159912	92.982483
854.683533	1178.719727	1531.425537	1463.159912	80.645164
854.983337	1133.209351	1547.354126	1456.333252	78.021965
855.283203	1135.484863	1524.598877	1438.129150	77.777794
855.582886	1080.872437	1570.109375	1576.935913	101.395348
855.882629	1130.933838	1586.037964	1415.373901	62.499996
856.182312	1121.831787	1454.057739	1392.618774	81.506874
856.481873	1121.831787	1531.425537	1483.639526	88.333313
856.781372	1089.974487	1615.619751	1485.915039	75.324669
857.080872	1153.689087	1556.456177	1433.578125	69.491539
857.380310	1162.791138	1497.292725	1422.200562	77.551033
857.679688	1074.045776	1535.976563	1501.843750	92.610840
857.979004	1137.760376	1579.211426	1499.568237	81.958771
858.278259	1096.801025	1531.425537	1476.812988	87.434547
858.577454	1171.893188	1524.598877	1417.649414	69.677422
858.876648	1128.658325	1490.466064	1410.822876	77.987427
859.175720	1103.627563	1504.119263	1465.435425	90.340912
859.474792	1019.433350	1547.354126	1388.067749	69.827599
859.773743	1058.117188	1638.375000	1413.098389	61.176460
860.072693	1158.240112	1592.864502	1424.476074	61.256561
860.371521	1251.536499	1535.976563	1419.924927	59.199970
860.670349	1187.821899	1529.150024	1465.435425	81.333328
860.969116	1137.760376	1485.915039	1460.884399	92.810486
861.267883	1183.270874	1520.047852	1426.751587	72.297318
861.566589	1071.770264	1497.292725	1413.098389	80.213890
861.865112	1076.321289	1522.323364	1465.435425	87.244919
862.163635	1126.382813	1545.078613	1451.782227	77.717384
862.462158	1137.760376	1504.119263	1460.884399	88.198769
862.760620	1135.484863	1542.803101	1476.812988	83.798882
863.059021	1053.566162	1558.731689	1483.639526	85.135139
863.357361	1153.689087	1533.701050	1490.466064	88.622734
863.655640	1180.995239	1474.537476	1495.017212	106.976761
863.953857	1108.178589	1561.007324	1442.680176	73.869339
864.251953	1196.923950	1558.731689	1442.680176	67.924538
864.550110	1144.586914	1551.905151	1490.466064	84.916199
864.848206	1058.117188	1608.793213	1415.373901	64.876022
865.146179	1146.862427	1538.252075	1465.435425	81.395355
865.444092	1064.943726	1551.905151	1385.792114	65.887848
865.741943	1092.250000	1472.261963	1472.261963	100.000000
866.039795	1112.729614	1460.884399	1495.017212	109.803917
866.337646	1153.689087	1522.323364	1376.690063	60.493824
866.635376	1035.361938	1438.129150	1508.670288	117.514122
866.933044	1199.199463	1508.670288	1406.271851	66.911766
867.230652	1035.361938	1533.701050	1454.057739	84.018250
867.528198	1151.413574	1488.190552	1513.221313	107.432442
867.825745	1165.066650	1547.354126	1438.129150	71.428574
868.123230	1076.321289	1551.905151	1438.129150	76.076561
868.420593	1183.270874	1551.905151	1440.404663	69.753090
868.717896	1212.852539	1504.119263	1410.822876	67.968742
869.015198	1142.311401	1454.057739	1506.394775	116.788338
869.312439	1135.484863	1483.639526	1410.822876	79.084969
869.609619	1119.556274	1454.057739	1522.323364	120.408173
869.906738	1087.698975	1474.537476	1451.782227	94.117638
870.203796	1069.494751	1545.078613	1476.812988	85.645935
870.500854	1142.311401	1574.660400	1463.159912	74.210533
870.797791	1112.729614	1524.598877	1438.129150	79.005539
871.094666	1103.627563	1604.242188	1388.067749	56.818195
871.391602	1069.494751	1563.282837	1451.782227	77.419342
871.688293	1110.454102	1542.803101	1465.435425	82.105270
871.985107	1062.668213	1554.180664	1488.190552	86.574074
872.281738	1053.566162	1520.047852	1444.955688	83.902443
872.578369	1121.831787	1549.629639	1458.608887	78.723419
872.874939	1119.556274	1556.456177	1447.231201	75.000000
873.171509	1094.525513	1467.710938	1465.435425	99.390244
873.467957	1049.015137	1426.751587	1520.047852	124.698769
873.764343	1171.893188	1490.466064	1449.506714	87.142860
874.060669	1069.494751	1488.190552	1481.364014	98.369568
874.356995	1085.423462	1595.140137	1454.057739	72.321411
874.653198	1078.596802	1510.945801	1492.741699	95.789490
874.949463	1124.107300	1472.261963	1508.670288	110.457512
875.245544	1133.209351	1579.211426	1458.608887	72.959198
875.541626	1174.168701	1529.150024	1385.792114	59.615364
875.837646	1158.240112	1574.660400	1501.843750	82.513664
876.133606	1178.719727	1522.323364	1431.302612	73.509956
876.429565	1142.311401	1490.466064	1456.333252	90.196075
876.725403	1176.444214	1554.180664	1433.578125	68.072304
877.021179	1105.903076	1558.731689	1403.996338	65.829155
877.316956	1128.658325	1465.435425	1483.639526	105.405388
877.612610	1119.556274	1574.660400	1533.701050	91.000008
877.908203	1115.005249	1499.568237	1517.772339	104.733711
878.203857	1074.045776	1524.598877	1449.506714	83.333336
878.499390	1078.596802	1517.772339	1426.751587	79.274628
878.794800	1121.831787	1481.364014	1442.680176	89.240509
879.090271	1094.525513	1495.017212	1515.496826	105.113617
879.385559	1149.138062	1567.833862	1533.701050	91.847824
879.680847	1130.933838	1611.068726	1510.945801	79.146919
879.976196	1124.107300	1570.109375	1542.803101	93.877548
880.271301	1140.035889	1642.926025	1551.905151	81.900444
880.566467	1208.301514	1615.619751	1638.375000	105.586601
880.861572	1126.382813	1702.089600	1670.232300	94.466400
881.156555	1119.556274	1822.692139	1740.773438	88.349518
881.451477	1069.494751	1906.886475	1847.722900	92.934776
881.746460	1112.729614	2282.347412	2100.305664	84.435791
882.041321	1039.912964	2848.952148	2694.216553	91.446533
882.336121	1110.454102	3599.874023	3345.015625	89.762337
882.630798	1053.566162	4205.162598	3925.273438	91.119133
882.925537	1078.596802	4642.062500	4582.898926	98.339722
883.220215	1130.933838	4867.338867	4505.531250	90.316689
883.514771	1055.841675	4448.643066	4152.825684	91.281029
883.809326	1112.729614	4105.039551	3802.395264	89.885925
884.103760	1169.617676	3834.252441	3490.648926	87.105042
884.398132	1165.066650	3590.771729	3290.403076	87.617264
884.692505	1176.444214	3363.219727	3183.453613	91.779404
884.986816	1110.454102	3101.534912	2969.554688	93.371429
885.281067	1153.689087	2978.656738	2764.757813	88.279305
885.575256	1160.515625	2755.655762	2587.267090	89.443642
885.869385	1196.923950	2480.317627	2437.082764	96.631210
886.163452	1092.250000	2346.062012	2437.082764	107.259521
886.457458	1162.791138	2150.367188	2138.989502	98.847916
886.751465	1194.648438	2098.030273	1927.366089	81.108299
887.045410	1112.729614	2066.172852	1838.620850	76.133659
887.339233	1162.791138	1915.988525	1834.069824	89.123871
887.632996	1112.729614	1793.110352	1731.671387	90.969917
887.926758	1153.689087	1838.620850	1711.191650	81.395348
888.220398	1187.821899	1774.906250	1670.232300	82.170540
888.514099	1121.831787	1686.160889	1576.935913	80.645164
888.807678	1037.637451	1611.068726	1613.344238	100.396828
889.101196	1135.484863	1649.752563	1481.364014	67.256638
889.394653	1158.240112	1597.415649	1567.833862	93.264244
889.688049	1067.219238	1476.812988	1588.313477	127.222214
889.981384	1105.903076	1611.068726	1565.558350	90.990997
890.274719	1099.076538	1538.252075	1542.803101	101.036263
890.567932	1140.035889	1604.242188	1531.425537	84.313728
>>>>>End Processed Spectral Data<<<<<
